Nb und Si magnetic field  17.11.2020 Brinz Vanelli

17.11.2020 14:49
Zeit[s]		T[K]		R_Probe_1[Ohm]	R_Th[Ohm]	R_Probe_2 [Ohm]
0.000000E+0	5.298357E+0	1.697000E-2	7.144420E+0	1.024600E+6
1.000467E+0	5.300308E+0	1.690000E-2	7.143910E+0	1.024600E+6
2.000812E+0	5.298663E+0	1.685000E-2	7.144340E+0	1.024600E+6
3.000106E+0	5.300002E+0	1.708000E-2	7.143990E+0	1.024600E+6
4.000824E+0	5.293924E+0	1.712000E-2	7.145580E+0	1.024600E+6
5.000166E+0	5.295452E+0	1.713000E-2	7.145180E+0	1.024600E+6
6.000815E+0	5.298701E+0	1.710000E-2	7.144330E+0	1.024600E+6
6.999974E+0	5.298242E+0	1.698000E-2	7.144450E+0	1.024600E+6
8.000618E+0	5.299389E+0	1.706000E-2	7.144150E+0	1.024600E+6
9.000175E+0	5.299810E+0	1.711000E-2	7.144040E+0	1.024600E+6
1.000064E+1	5.299236E+0	1.709000E-2	7.144190E+0	1.024600E+6
1.100024E+1	5.299160E+0	1.698000E-2	7.144210E+0	1.024600E+6
1.199999E+1	5.299772E+0	1.698000E-2	7.144050E+0	1.024600E+6
1.300001E+1	5.297324E+0	1.698000E-2	7.144690E+0	1.024600E+6
1.400017E+1	5.299428E+0	1.698000E-2	7.144140E+0	1.024600E+6
1.500059E+1	5.302604E+0	1.697000E-2	7.143310E+0	1.024600E+6
1.600020E+1	5.298739E+0	1.700000E-2	7.144320E+0	1.024600E+6
1.699959E+1	5.297554E+0	1.693000E-2	7.144630E+0	1.024600E+6
1.800003E+1	5.298586E+0	1.695000E-2	7.144360E+0	1.024600E+6
1.900014E+1	5.298969E+0	1.690000E-2	7.144260E+0	1.024600E+6
1.999955E+1	5.297630E+0	1.697000E-2	7.144610E+0	1.024600E+6
2.100039E+1	5.299504E+0	1.704000E-2	7.144120E+0	1.024600E+6
2.200002E+1	5.298586E+0	1.695000E-2	7.144360E+0	1.024600E+6
2.299952E+1	5.300155E+0	1.712000E-2	7.143950E+0	1.024600E+6
2.399962E+1	5.298204E+0	1.698000E-2	7.144460E+0	1.024600E+6
2.499966E+1	5.297057E+0	1.713000E-2	7.144760E+0	1.024600E+6
2.599994E+1	5.296331E+0	1.703000E-2	7.144950E+0	1.024600E+6
2.699984E+1	5.297133E+0	1.706000E-2	7.144740E+0	1.024600E+6
2.799955E+1	5.296636E+0	1.703000E-2	7.144870E+0	1.024600E+6
2.899957E+1	5.297669E+0	1.684000E-2	7.144600E+0	1.024600E+6
2.999983E+1	5.297210E+0	1.694000E-2	7.144720E+0	1.024600E+6
3.100010E+1	5.297783E+0	1.694000E-2	7.144570E+0	1.024600E+6
3.200022E+1	5.296140E+0	1.678000E-2	7.145000E+0	1.024600E+6
3.300059E+1	5.297019E+0	1.718000E-2	7.144770E+0	1.024600E+6
3.400096E+1	5.297057E+0	1.698000E-2	7.144760E+0	1.024600E+6
3.500098E+1	5.295910E+0	1.700000E-2	7.145060E+0	1.024600E+6
3.600011E+1	5.296140E+0	1.683000E-2	7.145000E+0	1.024600E+6
3.700103E+1	5.296369E+0	1.700000E-2	7.144940E+0	1.024600E+6
3.800094E+1	5.295146E+0	1.711000E-2	7.145260E+0	1.024600E+6
3.900071E+1	5.296980E+0	1.709000E-2	7.144780E+0	1.024600E+6
4.000098E+1	5.298204E+0	1.709000E-2	7.144460E+0	1.024600E+6
4.100112E+1	5.296331E+0	1.710000E-2	7.144950E+0	1.024600E+6
4.200183E+1	5.295452E+0	1.706000E-2	7.145180E+0	1.024600E+6
4.300134E+1	5.294497E+0	1.703000E-2	7.145430E+0	1.024600E+6
4.400136E+1	5.296713E+0	1.707000E-2	7.144850E+0	1.024600E+6
4.500168E+1	5.295758E+0	1.688000E-2	7.145100E+0	1.024600E+6
4.600156E+1	5.295681E+0	1.717000E-2	7.145120E+0	1.024600E+6
4.700139E+1	5.296484E+0	1.702000E-2	7.144910E+0	1.024600E+6
4.800119E+1	5.296293E+0	1.708000E-2	7.144960E+0	1.024600E+6
4.900113E+1	5.295299E+0	1.710000E-2	7.145220E+0	1.024600E+6
5.000160E+1	5.295414E+0	1.714000E-2	7.145190E+0	1.024600E+6
5.100164E+1	5.294879E+0	1.697000E-2	7.145330E+0	1.024600E+6
5.200128E+1	5.294955E+0	1.693000E-2	7.145310E+0	1.024600E+6
5.300101E+1	5.294879E+0	1.703000E-2	7.145330E+0	1.024600E+6
5.400137E+1	5.294879E+0	1.709000E-2	7.145330E+0	1.024600E+6
5.500077E+1	5.291328E+0	1.694000E-2	7.146260E+0	1.024600E+6
5.600118E+1	5.294764E+0	1.703000E-2	7.145360E+0	1.024600E+6
5.700131E+1	5.297936E+0	1.693000E-2	7.144530E+0	1.024600E+6
5.800107E+1	5.300537E+0	1.718000E-2	7.143850E+0	1.024600E+6
5.900141E+1	5.300652E+0	1.699000E-2	7.143820E+0	1.024600E+6
6.000127E+1	5.300269E+0	1.708000E-2	7.143920E+0	1.024600E+6
6.100096E+1	5.300537E+0	1.710000E-2	7.143850E+0	1.024600E+6
6.200051E+1	5.300193E+0	1.701000E-2	7.143940E+0	1.024600E+6
6.300103E+1	5.300002E+0	1.707000E-2	7.143990E+0	1.024600E+6
6.400126E+1	5.299887E+0	1.722000E-2	7.144020E+0	1.024600E+6
6.500094E+1	5.300920E+0	1.713000E-2	7.143750E+0	1.024600E+6
6.600123E+1	5.299160E+0	1.721000E-2	7.144210E+0	1.024600E+6
6.700038E+1	5.297860E+0	1.728000E-2	7.144550E+0	1.024600E+6
6.800116E+1	5.299007E+0	1.720000E-2	7.144250E+0	1.024600E+6
6.900122E+1	5.298433E+0	1.714000E-2	7.144400E+0	1.024600E+6
7.000126E+1	5.294535E+0	1.712000E-2	7.145420E+0	1.024600E+6
7.100132E+1	5.291672E+0	1.698000E-2	7.146170E+0	1.024600E+6
7.200106E+1	5.290718E+0	1.705000E-2	7.146420E+0	1.024600E+6
7.300110E+1	5.290031E+0	1.725000E-2	7.146600E+0	1.024600E+6
7.400138E+1	5.289574E+0	1.714000E-2	7.146720E+0	1.024600E+6
7.500167E+1	5.290260E+0	1.711000E-2	7.146540E+0	1.024600E+6
7.600153E+1	5.291176E+0	1.720000E-2	7.146300E+0	1.024600E+6
7.700191E+1	5.290756E+0	1.725000E-2	7.146410E+0	1.024600E+6
7.800280E+1	5.292092E+0	1.730000E-2	7.146060E+0	1.024600E+6
7.900210E+1	5.290718E+0	1.703000E-2	7.146420E+0	1.024600E+6
8.000224E+1	5.291977E+0	1.720000E-2	7.146090E+0	1.024600E+6
8.100246E+1	5.293199E+0	1.698000E-2	7.145770E+0	1.024600E+6
8.200263E+1	5.294497E+0	1.700000E-2	7.145430E+0	1.024600E+6
8.300236E+1	5.293466E+0	1.725000E-2	7.145700E+0	1.024600E+6
8.400230E+1	5.292053E+0	1.716000E-2	7.146070E+0	1.024600E+6
8.500182E+1	5.293199E+0	1.692000E-2	7.145770E+0	1.024600E+6
8.600179E+1	5.296216E+0	1.715000E-2	7.144980E+0	1.024600E+6
8.700218E+1	5.298395E+0	1.715000E-2	7.144410E+0	1.024600E+6
8.800203E+1	5.304634E+0	1.718000E-2	7.142780E+0	1.024600E+6
8.900218E+1	5.339500E+0	1.711000E-2	7.133730E+0	1.024600E+6
9.000233E+1	5.357212E+0	1.707000E-2	7.129170E+0	1.024600E+6
9.100167E+1	5.368097E+0	1.699000E-2	7.126380E+0	1.024600E+6
9.200200E+1	5.373260E+0	1.708000E-2	7.125060E+0	1.024600E+6
9.300186E+1	5.371225E+0	1.703000E-2	7.125580E+0	1.024600E+6
9.400208E+1	5.351569E+0	1.704000E-2	7.130620E+0	1.024600E+6
9.500225E+1	5.337873E+0	1.704000E-2	7.134150E+0	1.024600E+6
9.600193E+1	5.325585E+0	1.701000E-2	7.137330E+0	1.024600E+6
9.700143E+1	5.320768E+0	1.707000E-2	7.138580E+0	1.024600E+6
9.800190E+1	5.327205E+0	1.718000E-2	7.136910E+0	1.024600E+6
9.900168E+1	5.329637E+0	1.695000E-2	7.136280E+0	1.024600E+6
1.000022E+2	5.333810E+0	1.706000E-2	7.135200E+0	1.024600E+6
1.010031E+2	5.336867E+0	1.697000E-2	7.134410E+0	1.024600E+6
1.020027E+2	5.339190E+0	1.711000E-2	7.133810E+0	1.024600E+6
1.030026E+2	5.339073E+0	1.718000E-2	7.133840E+0	1.024600E+6
1.040024E+2	5.339654E+0	1.718000E-2	7.133690E+0	1.024600E+6
1.050029E+2	5.337796E+0	1.711000E-2	7.134170E+0	1.024600E+6
1.060023E+2	5.339112E+0	1.710000E-2	7.133830E+0	1.024600E+6
1.070027E+2	5.345044E+0	1.702000E-2	7.132300E+0	1.024600E+6
1.080025E+2	5.348615E+0	1.692000E-2	7.131380E+0	1.024600E+6
1.090027E+2	5.353319E+0	1.707000E-2	7.130170E+0	1.024600E+6
1.100027E+2	5.359900E+0	1.709000E-2	7.128480E+0	1.024600E+6
1.110025E+2	5.363177E+0	1.712000E-2	7.127640E+0	1.024600E+6
1.120024E+2	5.366378E+0	1.702000E-2	7.126820E+0	1.024600E+6
1.130024E+2	5.368488E+0	1.713000E-2	7.126280E+0	1.024600E+6
1.140025E+2	5.370013E+0	1.709000E-2	7.125890E+0	1.024600E+6
1.150021E+2	5.367159E+0	1.697000E-2	7.126620E+0	1.024600E+6
1.160018E+2	5.369426E+0	1.699000E-2	7.126040E+0	1.024600E+6
1.170024E+2	5.370286E+0	1.712000E-2	7.125820E+0	1.024600E+6
1.180026E+2	5.370638E+0	1.702000E-2	7.125730E+0	1.024600E+6
1.190017E+2	5.369426E+0	1.698000E-2	7.126040E+0	1.024600E+6
1.200017E+2	5.370443E+0	1.688000E-2	7.125780E+0	1.024600E+6
1.210017E+2	5.369739E+0	1.703000E-2	7.125960E+0	1.024600E+6
1.220020E+2	5.369192E+0	1.692000E-2	7.126100E+0	1.024600E+6
1.230018E+2	5.368918E+0	1.693000E-2	7.126170E+0	1.024600E+6
1.240021E+2	5.367511E+0	1.717000E-2	7.126530E+0	1.024600E+6
1.250014E+2	5.369543E+0	1.699000E-2	7.126010E+0	1.024600E+6
1.260022E+2	5.367511E+0	1.714000E-2	7.126530E+0	1.024600E+6
1.270021E+2	5.367784E+0	1.700000E-2	7.126460E+0	1.024600E+6
1.280023E+2	5.368527E+0	1.690000E-2	7.126270E+0	1.024600E+6
1.290022E+2	5.368058E+0	1.688000E-2	7.126390E+0	1.024600E+6
1.300017E+2	5.367667E+0	1.702000E-2	7.126490E+0	1.024600E+6
1.310015E+2	5.367706E+0	1.700000E-2	7.126480E+0	1.024600E+6
1.320020E+2	5.369309E+0	1.679000E-2	7.126070E+0	1.024600E+6
1.330019E+2	5.373926E+0	1.702000E-2	7.124890E+0	1.024600E+6
1.340011E+2	5.380118E+0	1.685000E-2	7.123310E+0	1.024600E+6
1.350016E+2	5.385300E+0	1.682000E-2	7.121990E+0	1.024600E+6
1.360016E+2	5.390844E+0	1.691000E-2	7.120580E+0	1.024600E+6
1.370010E+2	5.395650E+0	1.698000E-2	7.119360E+0	1.024600E+6
1.380014E+2	5.394901E+0	1.683000E-2	7.119550E+0	1.024600E+6
1.390019E+2	5.397503E+0	1.689000E-2	7.118890E+0	1.024600E+6
1.400017E+2	5.396517E+0	1.690000E-2	7.119140E+0	1.024600E+6
1.410012E+2	5.396753E+0	1.693000E-2	7.119080E+0	1.024600E+6
1.420009E+2	5.401212E+0	1.679000E-2	7.117950E+0	1.024600E+6
1.430013E+2	5.406784E+0	1.691000E-2	7.116540E+0	1.024600E+6
1.440009E+2	5.415894E+0	1.672000E-2	7.114240E+0	1.024600E+6
1.450012E+2	5.428093E+0	1.693000E-2	7.111170E+0	1.024600E+6
1.460009E+2	5.434349E+0	1.679000E-2	7.109600E+0	1.024600E+6
1.470007E+2	5.450183E+0	1.691000E-2	7.105640E+0	1.024600E+6
1.480015E+2	5.473150E+0	1.700000E-2	7.099930E+0	1.024600E+6
1.490015E+2	5.494897E+0	1.688000E-2	7.094560E+0	1.024600E+6
1.500015E+2	5.511068E+0	1.717000E-2	7.090590E+0	1.024600E+6
1.510011E+2	5.520144E+0	1.683000E-2	7.088370E+0	1.024600E+6
1.520009E+2	5.525020E+0	1.701000E-2	7.087180E+0	1.024600E+6
1.530009E+2	5.532327E+0	1.711000E-2	7.085400E+0	1.024600E+6
1.540006E+2	5.540556E+0	1.699000E-2	7.083400E+0	1.024600E+6
1.550005E+2	5.550168E+0	1.702000E-2	7.081070E+0	1.024600E+6
1.560011E+2	5.564328E+0	1.707000E-2	7.077650E+0	1.024600E+6
1.570006E+2	5.569518E+0	1.704000E-2	7.076400E+0	1.024600E+6
1.580012E+2	5.576340E+0	1.718000E-2	7.074760E+0	1.024600E+6
1.590008E+2	5.583217E+0	1.701000E-2	7.073110E+0	1.024600E+6
1.600009E+2	5.591071E+0	1.693000E-2	7.071230E+0	1.024600E+6
1.610008E+2	5.602215E+0	1.696000E-2	7.068570E+0	1.024600E+6
1.620007E+2	5.615459E+0	1.698000E-2	7.065420E+0	1.024600E+6
1.630010E+2	5.630490E+0	1.695000E-2	7.061860E+0	1.024600E+6
1.640007E+2	5.642699E+0	1.697000E-2	7.058980E+0	1.024600E+6
1.650006E+2	5.653546E+0	1.721000E-2	7.056430E+0	1.024600E+6
1.660006E+2	5.661309E+0	1.703000E-2	7.054610E+0	1.024600E+6
1.670007E+2	5.666138E+0	1.698000E-2	7.053480E+0	1.024600E+6
1.680010E+2	5.680021E+0	1.705000E-2	7.050240E+0	1.024600E+6
1.690004E+2	5.692755E+0	1.712000E-2	7.047280E+0	1.024600E+6
1.700004E+2	5.712075E+0	1.704000E-2	7.042810E+0	1.024600E+6
1.710001E+2	5.743862E+0	1.722000E-2	7.035510E+0	1.024600E+6
1.720005E+2	5.770387E+0	1.718000E-2	7.029470E+0	1.024600E+6
1.730005E+2	5.792721E+0	1.701000E-2	7.024420E+0	1.024600E+6
1.740007E+2	5.810024E+0	1.689000E-2	7.020530E+0	1.024600E+6
1.750003E+2	5.814307E+0	1.714000E-2	7.019570E+0	1.024600E+6
1.760001E+2	5.775063E+0	1.724000E-2	7.028410E+0	1.024600E+6
1.770005E+2	5.720233E+0	1.693000E-2	7.040930E+0	1.024600E+6
1.780000E+2	5.642784E+0	1.698000E-2	7.058960E+0	1.024600E+6
1.789998E+2	5.537426E+0	1.710000E-2	7.084160E+0	1.024600E+6
1.800005E+2	5.463236E+0	1.723000E-2	7.102390E+0	1.024600E+6
1.809998E+2	5.523339E+0	1.695000E-2	7.087590E+0	1.024600E+6
1.820005E+2	5.575882E+0	1.710000E-2	7.074870E+0	1.024600E+6
1.830001E+2	5.608893E+0	1.690000E-2	7.066980E+0	1.024600E+6
1.840003E+2	5.613606E+0	1.716000E-2	7.065860E+0	1.024600E+6
1.850004E+2	5.585304E+0	1.721000E-2	7.072610E+0	1.024600E+6
1.859996E+2	5.588395E+0	1.695000E-2	7.071870E+0	1.024600E+6
1.869997E+2	5.595214E+0	1.719000E-2	7.070240E+0	1.024600E+6
1.879999E+2	5.615627E+0	1.706000E-2	7.065380E+0	1.024600E+6
1.889996E+2	5.673372E+0	1.720000E-2	7.051790E+0	1.024600E+6
1.899997E+2	5.761098E+0	1.706000E-2	7.031580E+0	1.024600E+6
1.910000E+2	5.877512E+0	1.722000E-2	7.005540E+0	1.024600E+6
1.920001E+2	5.975406E+0	1.726000E-2	6.984300E+0	1.024600E+6
1.929995E+2	6.053300E+0	1.730000E-2	6.967810E+0	1.024600E+6
1.939996E+2	6.105143E+0	1.715000E-2	6.957030E+0	1.024600E+6
1.950006E+2	6.135053E+0	1.711000E-2	6.950880E+0	1.024600E+6
1.960004E+2	6.153116E+0	1.704000E-2	6.947190E+0	1.024600E+6
1.970006E+2	6.139842E+0	1.726000E-2	6.949900E+0	1.024600E+6
1.980010E+2	6.135444E+0	1.709000E-2	6.950800E+0	1.024600E+6
1.990021E+2	6.143413E+0	1.708000E-2	6.949170E+0	1.024600E+6
2.000020E+2	6.159551E+0	1.704000E-2	6.945880E+0	1.024600E+6
2.010028E+2	6.169938E+0	1.686000E-2	6.943770E+0	1.024600E+6
2.020025E+2	6.177784E+0	1.709000E-2	6.942180E+0	1.024600E+6
2.030022E+2	6.185449E+0	1.705000E-2	6.940630E+0	1.024600E+6
2.040029E+2	6.189164E+0	1.715000E-2	6.939880E+0	1.024600E+6
2.050024E+2	6.190106E+0	1.723000E-2	6.939690E+0	1.024600E+6
2.060027E+2	6.193329E+0	1.706000E-2	6.939040E+0	1.024600E+6
2.070019E+2	6.194272E+0	1.720000E-2	6.938850E+0	1.024600E+6
2.080022E+2	6.193428E+0	1.694000E-2	6.939020E+0	1.024600E+6
2.090023E+2	6.196803E+0	1.735000E-2	6.938340E+0	1.024600E+6
2.100023E+2	6.195066E+0	1.719000E-2	6.938690E+0	1.024600E+6
2.110032E+2	6.193527E+0	1.706000E-2	6.939000E+0	1.024600E+6
2.120032E+2	6.196406E+0	1.714000E-2	6.938420E+0	1.024600E+6
2.130031E+2	6.194619E+0	1.713000E-2	6.938780E+0	1.024600E+6
2.140031E+2	6.194123E+0	1.726000E-2	6.938880E+0	1.024600E+6
2.150034E+2	6.194768E+0	1.713000E-2	6.938750E+0	1.024600E+6
2.160030E+2	6.195860E+0	1.699000E-2	6.938530E+0	1.024600E+6
2.170027E+2	6.192734E+0	1.719000E-2	6.939160E+0	1.024600E+6
2.180030E+2	6.195165E+0	1.699000E-2	6.938670E+0	1.024600E+6
2.190030E+2	6.192287E+0	1.710000E-2	6.939250E+0	1.024600E+6
2.200032E+2	6.191494E+0	1.699000E-2	6.939410E+0	1.024600E+6
2.210028E+2	6.190304E+0	1.706000E-2	6.939650E+0	1.024600E+6
2.220028E+2	6.191048E+0	1.703000E-2	6.939500E+0	1.024600E+6
2.230031E+2	6.204608E+0	1.716000E-2	6.936770E+0	1.024600E+6
2.240028E+2	6.220215E+0	1.697000E-2	6.933640E+0	1.024600E+6
2.250023E+2	6.228470E+0	1.718000E-2	6.931990E+0	1.024600E+6
2.260024E+2	6.241614E+0	1.717000E-2	6.929370E+0	1.024600E+6
2.270025E+2	6.298942E+0	1.724000E-2	6.918050E+0	1.024600E+6
2.280027E+2	6.366234E+0	1.731000E-2	6.904980E+0	1.024600E+6
2.290022E+2	6.439657E+0	1.713000E-2	6.890980E+0	1.024600E+6
2.300030E+2	6.523316E+0	1.713000E-2	6.875350E+0	1.024600E+6
2.310036E+2	6.591647E+0	1.716000E-2	6.862830E+0	1.024600E+6
2.320034E+2	6.648652E+0	1.733000E-2	6.852550E+0	1.024600E+6
2.330035E+2	6.709604E+0	1.733000E-2	6.841720E+0	1.024600E+6
2.340034E+2	6.751790E+0	1.722000E-2	6.834320E+0	1.024600E+6
2.350031E+2	6.796912E+0	1.737000E-2	6.826490E+0	1.024600E+6
2.360036E+2	6.878030E+0	1.721000E-2	6.812630E+0	1.024600E+6
2.370033E+2	6.947172E+0	1.728000E-2	6.801030E+0	1.024600E+6
2.380031E+2	7.050250E+0	1.697000E-2	6.784090E+0	1.024600E+6
2.390033E+2	7.116119E+0	1.684000E-2	6.773480E+0	1.024600E+6
2.400032E+2	7.208902E+0	1.691000E-2	6.758810E+0	1.024600E+6
2.410032E+2	7.270133E+0	1.668000E-2	6.749300E+0	1.024600E+6
2.420028E+2	7.297648E+0	1.690000E-2	6.745070E+0	1.024600E+6
2.430033E+2	7.313927E+0	1.685000E-2	6.742580E+0	1.024600E+6
2.440034E+2	7.357368E+0	1.696000E-2	6.735980E+0	1.024600E+6
2.450028E+2	7.364849E+0	1.689000E-2	6.734850E+0	1.024600E+6
2.460033E+2	7.373272E+0	1.699000E-2	6.733580E+0	1.024600E+6
2.470032E+2	7.416768E+0	1.689000E-2	6.727060E+0	1.024600E+6
2.480032E+2	7.487244E+0	1.703000E-2	6.716630E+0	1.024600E+6
2.490031E+2	7.521495E+0	1.673000E-2	6.711620E+0	1.024600E+6
2.500033E+2	7.582640E+0	1.693000E-2	6.702770E+0	1.024600E+6
2.510032E+2	7.627376E+0	1.705000E-2	6.696370E+0	1.024600E+6
2.520025E+2	7.673547E+0	1.695000E-2	6.689830E+0	1.024600E+6
2.530032E+2	7.701803E+0	1.703000E-2	6.685860E+0	1.024600E+6
2.540029E+2	7.731668E+0	1.678000E-2	6.681690E+0	1.024600E+6
2.550029E+2	7.750315E+0	1.691000E-2	6.679100E+0	1.024600E+6
2.560027E+2	7.768385E+0	1.695000E-2	6.676600E+0	1.024600E+6
2.570027E+2	7.780641E+0	1.704000E-2	6.674910E+0	1.024600E+6
2.580028E+2	7.790162E+0	1.690000E-2	6.673600E+0	1.024600E+6
2.590022E+2	7.808680E+0	1.710000E-2	6.671060E+0	1.024600E+6
2.600029E+2	7.832774E+0	1.694000E-2	6.667770E+0	1.024600E+6
2.610027E+2	7.844537E+0	1.698000E-2	6.666170E+0	1.024600E+6
2.620027E+2	7.861866E+0	1.693000E-2	6.663820E+0	1.024600E+6
2.630029E+2	7.870592E+0	1.708000E-2	6.662640E+0	1.024600E+6
2.640028E+2	7.889503E+0	1.708000E-2	6.660090E+0	1.024600E+6
2.650021E+2	7.918499E+0	1.694000E-2	6.656200E+0	1.024600E+6
2.660022E+2	7.947521E+0	1.700000E-2	6.652330E+0	1.024600E+6
2.670024E+2	7.974073E+0	1.676000E-2	6.648810E+0	1.024600E+6
2.680028E+2	7.995832E+0	1.683000E-2	6.645940E+0	1.024600E+6
2.690019E+2	8.012273E+0	1.688000E-2	6.643780E+0	1.024600E+6
2.700021E+2	8.026934E+0	1.692000E-2	6.641860E+0	1.024600E+6
2.710025E+2	8.037576E+0	1.698000E-2	6.640470E+0	1.024600E+6
2.720024E+2	8.060086E+0	1.681000E-2	6.637540E+0	1.024600E+6
2.730020E+2	8.078370E+0	1.687000E-2	6.635170E+0	1.024600E+6
2.740020E+2	8.095792E+0	1.701000E-2	6.632920E+0	1.024600E+6
2.750019E+2	8.108531E+0	1.713000E-2	6.631280E+0	1.024600E+6
2.760017E+2	8.123799E+0	1.703000E-2	6.629320E+0	1.024600E+6
2.770020E+2	8.131450E+0	1.698000E-2	6.628340E+0	1.024600E+6
2.780023E+2	8.139819E+0	1.696000E-2	6.627270E+0	1.024600E+6
2.790016E+2	8.158955E+0	1.699000E-2	6.624830E+0	1.024600E+6
2.800024E+2	8.185192E+0	1.693000E-2	6.621500E+0	1.024600E+6
2.810022E+2	8.212205E+0	1.679000E-2	6.618090E+0	1.024600E+6
2.820019E+2	8.245121E+0	1.702000E-2	6.613960E+0	1.024600E+6
2.830030E+2	8.277291E+0	1.675000E-2	6.609950E+0	1.024600E+6
2.840028E+2	8.313316E+0	1.658000E-2	6.605490E+0	1.024600E+6
2.850032E+2	8.350991E+0	1.692000E-2	6.600860E+0	1.024600E+6
2.860032E+2	8.391090E+0	1.694000E-2	6.595970E+0	1.024600E+6
2.870032E+2	8.431178E+0	1.682000E-2	6.591120E+0	1.024600E+6
2.880031E+2	8.465900E+0	1.695000E-2	6.586950E+0	1.024600E+6
2.890030E+2	8.498421E+0	1.688000E-2	6.583070E+0	1.024600E+6
2.900031E+2	8.537924E+0	1.669000E-2	6.578390E+0	1.024600E+6
2.910029E+2	8.575513E+0	1.689000E-2	6.573970E+0	1.024600E+6
2.920031E+2	8.611658E+0	1.688000E-2	6.569750E+0	1.024600E+6
2.930040E+2	8.643990E+0	1.686000E-2	6.566000E+0	1.024600E+6
2.940039E+2	8.673565E+0	1.691000E-2	6.562590E+0	1.024600E+6
2.950040E+2	8.696665E+0	1.713000E-2	6.559940E+0	1.024600E+6
2.960038E+2	8.716708E+0	1.726000E-2	6.557650E+0	1.024600E+6
2.970036E+2	8.743964E+0	1.767000E-2	6.554550E+0	1.024600E+6
2.980032E+2	8.774907E+0	1.811000E-2	6.551050E+0	1.024600E+6
2.990032E+2	8.817549E+0	1.815000E-2	6.546260E+0	1.024600E+6
3.000038E+2	8.864861E+0	1.876000E-2	6.540990E+0	1.024600E+6
3.010038E+2	8.913597E+0	1.934000E-2	6.535610E+0	1.024600E+6
3.020035E+2	8.963419E+0	2.003000E-2	6.530160E+0	1.024600E+6
3.030037E+2	9.011388E+0	2.166000E-2	6.524960E+0	1.024600E+6
3.040047E+2	9.052309E+0	2.336000E-2	6.520560E+0	1.024600E+6
3.050056E+2	9.089495E+0	2.451000E-2	6.516590E+0	1.024600E+6
3.060057E+2	9.122677E+0	2.531000E-2	6.513070E+0	1.024600E+6
3.070065E+2	9.147791E+0	2.644000E-2	6.510420E+0	1.024600E+6
3.080062E+2	9.172542E+0	2.687000E-2	6.507820E+0	1.024600E+6
3.090064E+2	9.195487E+0	2.684000E-2	6.505420E+0	1.024600E+6
3.100062E+2	9.211317E+0	2.706000E-2	6.503770E+0	1.024600E+6
3.110055E+2	9.229311E+0	2.676000E-2	6.501900E+0	1.024600E+6
3.120062E+2	9.252879E+0	2.688000E-2	6.499460E+0	1.024600E+6
3.130060E+2	9.267707E+0	2.694000E-2	6.497930E+0	1.024600E+6
3.140061E+2	9.292119E+0	2.699000E-2	6.495420E+0	1.024600E+6
3.150058E+2	9.322220E+0	2.686000E-2	6.492340E+0	1.024600E+6
3.160061E+2	9.352383E+0	2.698000E-2	6.489270E+0	1.024600E+6
3.170056E+2	9.386968E+0	2.689000E-2	6.485770E+0	1.024600E+6
3.180061E+2	9.422762E+0	2.694000E-2	6.482170E+0	1.024600E+6
3.190060E+2	9.468324E+0	2.686000E-2	6.477620E+0	1.024600E+6
3.200054E+2	9.515467E+0	2.696000E-2	6.472950E+0	1.024600E+6
3.210053E+2	9.571280E+0	2.681000E-2	6.467470E+0	1.024600E+6
3.220058E+2	9.631770E+0	2.662000E-2	6.461590E+0	1.024600E+6
3.230056E+2	9.697700E+0	2.685000E-2	6.455250E+0	1.024600E+6
3.240052E+2	9.762366E+0	2.693000E-2	6.449100E+0	1.024600E+6
3.250055E+2	9.825607E+0	2.694000E-2	6.443150E+0	1.024600E+6
3.260053E+2	9.891684E+0	2.708000E-2	6.437000E+0	1.024600E+6
3.270057E+2	9.958384E+0	2.702000E-2	6.430860E+0	1.024600E+6
3.280054E+2	1.004618E+1	2.697000E-2	6.422880E+0	1.024600E+6
3.290051E+2	1.012829E+1	2.697000E-2	6.415520E+0	1.024600E+6
3.300056E+2	1.021731E+1	2.710000E-2	6.407650E+0	1.024600E+6
3.310057E+2	1.030265E+1	2.695000E-2	6.400210E+0	1.024600E+6
3.320052E+2	1.038940E+1	2.711000E-2	6.392750E+0	1.024600E+6
3.330054E+2	1.046620E+1	2.686000E-2	6.386230E+0	1.024600E+6
3.340047E+2	1.054406E+1	2.714000E-2	6.379700E+0	1.024600E+6
3.350052E+2	1.061849E+1	2.689000E-2	6.373530E+0	1.024600E+6
3.360051E+2	1.068054E+1	2.696000E-2	6.368440E+0	1.024600E+6
3.370056E+2	1.073837E+1	2.686000E-2	6.363740E+0	1.024600E+6
3.380052E+2	1.080569E+1	2.670000E-2	6.358320E+0	1.024600E+6
3.390052E+2	1.085858E+1	2.706000E-2	6.354100E+0	1.024600E+6
3.400048E+2	1.091279E+1	2.698000E-2	6.349810E+0	1.024600E+6
3.410047E+2	1.097050E+1	2.683000E-2	6.345280E+0	1.024600E+6
3.420052E+2	1.101763E+1	2.684000E-2	6.341610E+0	1.024600E+6
3.430051E+2	1.106884E+1	2.693000E-2	6.337650E+0	1.024600E+6
3.440051E+2	1.112700E+1	2.689000E-2	6.333190E+0	1.024600E+6
3.450044E+2	1.119185E+1	2.665000E-2	6.328260E+0	1.024600E+6
3.460047E+2	1.124706E+1	2.692000E-2	6.324100E+0	1.024600E+6
3.470049E+2	1.130191E+1	2.695000E-2	6.320000E+0	1.024600E+6
3.480043E+2	1.135502E+1	2.674000E-2	6.316060E+0	1.024600E+6
3.490047E+2	1.140841E+1	2.693000E-2	6.312130E+0	1.024600E+6
3.500047E+2	1.146536E+1	2.674000E-2	6.307970E+0	1.024600E+6
3.510049E+2	1.150866E+1	2.699000E-2	6.304830E+0	1.024600E+6
3.520043E+2	1.156308E+1	2.704000E-2	6.300910E+0	1.024600E+6
3.530045E+2	1.162635E+1	2.702000E-2	6.296390E+0	1.024600E+6
3.540047E+2	1.168806E+1	2.696000E-2	6.292020E+0	1.024600E+6
3.550049E+2	1.174115E+1	2.689000E-2	6.288290E+0	1.024600E+6
3.560044E+2	1.179924E+1	2.687000E-2	6.284240E+0	1.024600E+6
3.570044E+2	1.185359E+1	2.687000E-2	6.280480E+0	1.024600E+6
3.580044E+2	1.190308E+1	2.689000E-2	6.277080E+0	1.024600E+6
3.590045E+2	1.195231E+1	2.687000E-2	6.273720E+0	1.024600E+6
3.600048E+2	1.200736E+1	2.702000E-2	6.269990E+0	1.024600E+6
3.610057E+2	1.205640E+1	2.682000E-2	6.266690E+0	1.024600E+6
3.620056E+2	1.210772E+1	2.675000E-2	6.263260E+0	1.024600E+6
3.630056E+2	1.215909E+1	2.701000E-2	6.259850E+0	1.024600E+6
3.640052E+2	1.220259E+1	2.696000E-2	6.256980E+0	1.024600E+6
3.650058E+2	1.223978E+1	2.685000E-2	6.254540E+0	1.024600E+6
3.660056E+2	1.227961E+1	2.702000E-2	6.251940E+0	1.024600E+6
3.670052E+2	1.231131E+1	2.709000E-2	6.249880E+0	1.024600E+6
3.680050E+2	1.233726E+1	2.692000E-2	6.248200E+0	1.024600E+6
3.690056E+2	1.237682E+1	2.684000E-2	6.245650E+0	1.024600E+6
3.700048E+2	1.240003E+1	2.682000E-2	6.244160E+0	1.024600E+6
3.710052E+2	1.242378E+1	2.684000E-2	6.242640E+0	1.024600E+6
3.720052E+2	1.244996E+1	2.691000E-2	6.240970E+0	1.024600E+6
3.730050E+2	1.247386E+1	2.689000E-2	6.239450E+0	1.024600E+6
3.740047E+2	1.248836E+1	2.693000E-2	6.238530E+0	1.024600E+6
3.750049E+2	1.251017E+1	2.693000E-2	6.237150E+0	1.024600E+6
3.760050E+2	1.252236E+1	2.706000E-2	6.236380E+0	1.024600E+6
3.770047E+2	1.253648E+1	2.686000E-2	6.235490E+0	1.024600E+6
3.780051E+2	1.255540E+1	2.700000E-2	6.234300E+0	1.024600E+6
3.790047E+2	1.256734E+1	2.673000E-2	6.233550E+0	1.024600E+6
3.800054E+2	1.258266E+1	2.688000E-2	6.232590E+0	1.024600E+6
3.810044E+2	1.259353E+1	2.672000E-2	6.231910E+0	1.024600E+6
3.820044E+2	1.260025E+1	2.675000E-2	6.231490E+0	1.024600E+6
3.830044E+2	1.258107E+1	2.677000E-2	6.232690E+0	1.024600E+6
3.840044E+2	1.254395E+1	2.682000E-2	6.235020E+0	1.024600E+6
3.850051E+2	1.246819E+1	2.676000E-2	6.239810E+0	1.024600E+6
3.860043E+2	1.236687E+1	2.674000E-2	6.246290E+0	1.024600E+6
3.870049E+2	1.225890E+1	2.708000E-2	6.253290E+0	1.024600E+6
3.880044E+2	1.214203E+1	2.681000E-2	6.260980E+0	1.024600E+6
3.890048E+2	1.202174E+1	2.697000E-2	6.269020E+0	1.024600E+6
3.900049E+2	1.190644E+1	2.698000E-2	6.276850E+0	1.024600E+6
3.910046E+2	1.179017E+1	2.697000E-2	6.284870E+0	1.024600E+6
3.920051E+2	1.168834E+1	2.687000E-2	6.292000E+0	1.024600E+6
3.930060E+2	1.159409E+1	2.682000E-2	6.298690E+0	1.024600E+6
3.940052E+2	1.149802E+1	2.679000E-2	6.305600E+0	1.024600E+6
3.950055E+2	1.140977E+1	2.667000E-2	6.312030E+0	1.024600E+6
3.960052E+2	1.132855E+1	2.700000E-2	6.318020E+0	1.024600E+6
3.970052E+2	1.125266E+1	2.699000E-2	6.323680E+0	1.024600E+6
3.980056E+2	1.118155E+1	2.690000E-2	6.329040E+0	1.024600E+6
3.990051E+2	1.110999E+1	2.706000E-2	6.334490E+0	1.024600E+6
4.000052E+2	1.105419E+1	2.681000E-2	6.338780E+0	1.024600E+6
4.010053E+2	1.099871E+1	2.683000E-2	6.343080E+0	1.024600E+6
4.020052E+2	1.094674E+1	2.668000E-2	6.347140E+0	1.024600E+6
4.030054E+2	1.089682E+1	2.685000E-2	6.351070E+0	1.024600E+6
4.040055E+2	1.085695E+1	2.683000E-2	6.354230E+0	1.024600E+6
4.050053E+2	1.081568E+1	2.672000E-2	6.357520E+0	1.024600E+6
4.060052E+2	1.078487E+1	2.680000E-2	6.359990E+0	1.024600E+6
4.070049E+2	1.075482E+1	2.669000E-2	6.362410E+0	1.024600E+6
4.080053E+2	1.071875E+1	2.679000E-2	6.365330E+0	1.024600E+6
4.090049E+2	1.067577E+1	2.678000E-2	6.368830E+0	1.024600E+6
4.100056E+2	1.062334E+1	2.685000E-2	6.373130E+0	1.024600E+6
4.110048E+2	1.055318E+1	2.672000E-2	6.378940E+0	1.024600E+6
4.120050E+2	1.049911E+1	2.686000E-2	6.383460E+0	1.024600E+6
4.130050E+2	1.044314E+1	2.700000E-2	6.388180E+0	1.024600E+6
4.140051E+2	1.039104E+1	2.694000E-2	6.392610E+0	1.024600E+6
4.150052E+2	1.034472E+1	2.698000E-2	6.396580E+0	1.024600E+6
4.160051E+2	1.030069E+1	2.677000E-2	6.400380E+0	1.024600E+6
4.170047E+2	1.026362E+1	2.695000E-2	6.403600E+0	1.024600E+6
4.180046E+2	1.022803E+1	2.711000E-2	6.406710E+0	1.024600E+6
4.190052E+2	1.019843E+1	2.672000E-2	6.409310E+0	1.024600E+6
4.200050E+2	1.016840E+1	2.689000E-2	6.411960E+0	1.024600E+6
4.210053E+2	1.014268E+1	2.683000E-2	6.414240E+0	1.024600E+6
4.220052E+2	1.012481E+1	2.688000E-2	6.415830E+0	1.024600E+6
4.230051E+2	1.010263E+1	2.677000E-2	6.417810E+0	1.024600E+6
4.240048E+2	1.008442E+1	2.687000E-2	6.419440E+0	1.024600E+6
4.250043E+2	1.006361E+1	2.699000E-2	6.421310E+0	1.024600E+6
4.260043E+2	1.005173E+1	2.698000E-2	6.422380E+0	1.024600E+6
4.270043E+2	1.003522E+1	2.704000E-2	6.423870E+0	1.024600E+6
4.280049E+2	1.001303E+1	2.685000E-2	6.425880E+0	1.024600E+6
4.290051E+2	9.990255E+0	2.694000E-2	6.427950E+0	1.024600E+6
4.300044E+2	9.965489E+0	2.694000E-2	6.430210E+0	1.024600E+6
4.310048E+2	9.934944E+0	2.690000E-2	6.433010E+0	1.024600E+6
4.320047E+2	9.898061E+0	2.688000E-2	6.436410E+0	1.024600E+6
4.330042E+2	9.860542E+0	2.674000E-2	6.439890E+0	1.024600E+6
4.340047E+2	9.821975E+0	2.682000E-2	6.443490E+0	1.024600E+6
4.350044E+2	9.787901E+0	2.693000E-2	6.446690E+0	1.024600E+6
4.360046E+2	9.754337E+0	2.677000E-2	6.449860E+0	1.024600E+6
4.370043E+2	9.728736E+0	2.699000E-2	6.452290E+0	1.024600E+6
4.380041E+2	9.705653E+0	2.703000E-2	6.454490E+0	1.024600E+6
4.390040E+2	9.678802E+0	2.707000E-2	6.457060E+0	1.024600E+6
4.400044E+2	9.653838E+0	2.699000E-2	6.459460E+0	1.024600E+6
4.410047E+2	9.624743E+0	2.698000E-2	6.462270E+0	1.024600E+6
4.420042E+2	9.598567E+0	2.686000E-2	6.464810E+0	1.024600E+6
4.430044E+2	9.578141E+0	2.686000E-2	6.466800E+0	1.024600E+6
4.440041E+2	9.556970E+0	2.684000E-2	6.468870E+0	1.024600E+6
4.450039E+2	9.541881E+0	2.687000E-2	6.470350E+0	1.024600E+6
4.460048E+2	9.525713E+0	2.693000E-2	6.471940E+0	1.024600E+6
4.470055E+2	9.511312E+0	2.683000E-2	6.473360E+0	1.024600E+6
4.480053E+2	9.501698E+0	2.695000E-2	6.474310E+0	1.024600E+6
4.490048E+2	9.492200E+0	2.693000E-2	6.475250E+0	1.024600E+6
4.500054E+2	9.485239E+0	2.700000E-2	6.475940E+0	1.024600E+6
4.510055E+2	9.476373E+0	2.681000E-2	6.476820E+0	1.024600E+6
4.520049E+2	9.468525E+0	2.666000E-2	6.477600E+0	1.024600E+6
4.530051E+2	9.465610E+0	2.686000E-2	6.477890E+0	1.024600E+6
4.540051E+2	9.456273E+0	2.699000E-2	6.478820E+0	1.024600E+6
4.550049E+2	9.452963E+0	2.720000E-2	6.479150E+0	1.024600E+6
4.560051E+2	9.451259E+0	2.710000E-2	6.479320E+0	1.024600E+6
4.570047E+2	9.447050E+0	2.708000E-2	6.479740E+0	1.024600E+6
4.580046E+2	9.437143E+0	2.687000E-2	6.480730E+0	1.024600E+6
4.590047E+2	9.426853E+0	2.686000E-2	6.481760E+0	1.024600E+6
4.600044E+2	9.414888E+0	2.702000E-2	6.482960E+0	1.024600E+6
4.610049E+2	9.406826E+0	2.692000E-2	6.483770E+0	1.024600E+6
4.620049E+2	9.393812E+0	2.682000E-2	6.485080E+0	1.024600E+6
4.630050E+2	9.386968E+0	2.678000E-2	6.485770E+0	1.024600E+6
4.640048E+2	9.378550E+0	2.698000E-2	6.486620E+0	1.024600E+6
4.650058E+2	9.368464E+0	2.679000E-2	6.487640E+0	1.024600E+6
4.660057E+2	9.365600E+0	2.678000E-2	6.487930E+0	1.024600E+6
4.670059E+2	9.361059E+0	2.676000E-2	6.488390E+0	1.024600E+6
4.680053E+2	9.357213E+0	2.679000E-2	6.488780E+0	1.024600E+6
4.690054E+2	9.355734E+0	2.696000E-2	6.488930E+0	1.024600E+6
4.700057E+2	9.352383E+0	2.701000E-2	6.489270E+0	1.024600E+6
4.710055E+2	9.345787E+0	2.686000E-2	6.489940E+0	1.024600E+6
4.720059E+2	9.342639E+0	2.696000E-2	6.490260E+0	1.024600E+6
4.730054E+2	9.335071E+0	2.698000E-2	6.491030E+0	1.024600E+6
4.740054E+2	9.319281E+0	2.691000E-2	6.492640E+0	1.024600E+6
4.750055E+2	9.295629E+0	2.704000E-2	6.495060E+0	1.024600E+6
4.760050E+2	9.267707E+0	2.696000E-2	6.497930E+0	1.024600E+6
4.770055E+2	9.238958E+0	2.698000E-2	6.500900E+0	1.024600E+6
4.780058E+2	9.210452E+0	2.705000E-2	6.503860E+0	1.024600E+6
4.790056E+2	9.186297E+0	2.694000E-2	6.506380E+0	1.024600E+6
4.800056E+2	9.166248E+0	2.639000E-2	6.508480E+0	1.024600E+6
4.810051E+2	9.145702E+0	2.545000E-2	6.510640E+0	1.024600E+6
4.820052E+2	9.129395E+0	2.497000E-2	6.512360E+0	1.024600E+6
4.830053E+2	9.119558E+0	2.455000E-2	6.513400E+0	1.024600E+6
4.840053E+2	9.106061E+0	2.449000E-2	6.514830E+0	1.024600E+6
4.850054E+2	9.091281E+0	2.393000E-2	6.516400E+0	1.024600E+6
4.860053E+2	9.082544E+0	2.378000E-2	6.517330E+0	1.024600E+6
4.870048E+2	9.074665E+0	2.317000E-2	6.518170E+0	1.024600E+6
4.880052E+2	9.068295E+0	2.318000E-2	6.518850E+0	1.024600E+6
4.890048E+2	9.062119E+0	2.280000E-2	6.519510E+0	1.024600E+6
4.900054E+2	9.056885E+0	2.276000E-2	6.520070E+0	1.024600E+6
4.910055E+2	9.049416E+0	2.266000E-2	6.520870E+0	1.024600E+6
4.920047E+2	9.048389E+0	2.247000E-2	6.520980E+0	1.024600E+6
4.930054E+2	9.043354E+0	2.236000E-2	6.521520E+0	1.024600E+6
4.940051E+2	9.044193E+0	2.247000E-2	6.521430E+0	1.024600E+6
4.950053E+2	9.043727E+0	2.209000E-2	6.521480E+0	1.024600E+6
4.960051E+2	9.042609E+0	2.202000E-2	6.521600E+0	1.024600E+6
4.970046E+2	9.039069E+0	2.198000E-2	6.521980E+0	1.024600E+6
4.980052E+2	9.036648E+0	2.192000E-2	6.522240E+0	1.024600E+6
4.990051E+2	9.034601E+0	2.197000E-2	6.522460E+0	1.024600E+6
5.000046E+2	9.035810E+0	2.191000E-2	6.522330E+0	1.024600E+6
5.010046E+2	9.032926E+0	2.186000E-2	6.522640E+0	1.024600E+6
5.020052E+2	9.034135E+0	2.157000E-2	6.522510E+0	1.024600E+6
5.030047E+2	9.031066E+0	2.182000E-2	6.522840E+0	1.024600E+6
5.040049E+2	9.030973E+0	2.171000E-2	6.522850E+0	1.024600E+6
5.050043E+2	9.031531E+0	2.187000E-2	6.522790E+0	1.024600E+6
5.060048E+2	9.033577E+0	2.184000E-2	6.522570E+0	1.024600E+6
5.070048E+2	9.026511E+0	2.200000E-2	6.523330E+0	1.024600E+6
5.080046E+2	9.038789E+0	2.168000E-2	6.522010E+0	1.024600E+6
5.090047E+2	9.020011E+0	2.156000E-2	6.524030E+0	1.024600E+6
5.100049E+2	9.029485E+0	2.147000E-2	6.523010E+0	1.024600E+6
5.110046E+2	9.025396E+0	2.155000E-2	6.523450E+0	1.024600E+6
5.120044E+2	9.035531E+0	2.149000E-2	6.522360E+0	1.024600E+6
5.130044E+2	9.025118E+0	2.158000E-2	6.523480E+0	1.024600E+6
5.140041E+2	9.032089E+0	2.156000E-2	6.522730E+0	1.024600E+6
5.150049E+2	9.029671E+0	2.155000E-2	6.522990E+0	1.024600E+6
5.160042E+2	9.035345E+0	2.167000E-2	6.522380E+0	1.024600E+6
5.170044E+2	9.021032E+0	2.114000E-2	6.523920E+0	1.024600E+6
5.180042E+2	9.008609E+0	2.057000E-2	6.525260E+0	1.024600E+6
5.190044E+2	8.990857E+0	2.000000E-2	6.527180E+0	1.024600E+6
5.200054E+2	8.971232E+0	1.963000E-2	6.529310E+0	1.024600E+6
5.210050E+2	8.951218E+0	1.942000E-2	6.531490E+0	1.024600E+6
5.220052E+2	8.938405E+0	1.892000E-2	6.532890E+0	1.024600E+6
5.230055E+2	8.931918E+0	1.891000E-2	6.533600E+0	1.024600E+6
5.240051E+2	8.910776E+0	1.883000E-2	6.535920E+0	1.024600E+6
5.250051E+2	8.899147E+0	1.892000E-2	6.537200E+0	1.024600E+6
5.260053E+2	8.885551E+0	1.893000E-2	6.538700E+0	1.024600E+6
5.270049E+2	8.880846E+0	1.879000E-2	6.539220E+0	1.024600E+6
5.280049E+2	8.875784E+0	1.867000E-2	6.539780E+0	1.024600E+6
5.290049E+2	8.868650E+0	1.852000E-2	6.540570E+0	1.024600E+6
5.300054E+2	8.861526E+0	1.850000E-2	6.541360E+0	1.024600E+6
5.310051E+2	8.858913E+0	1.835000E-2	6.541650E+0	1.024600E+6
5.320052E+2	8.854861E+0	1.840000E-2	6.542100E+0	1.024600E+6
5.330052E+2	8.841018E+0	1.840000E-2	6.543640E+0	1.024600E+6
5.340051E+2	8.815851E+0	1.828000E-2	6.546450E+0	1.024600E+6
5.350051E+2	8.834558E+0	1.833000E-2	6.544360E+0	1.024600E+6
5.360051E+2	8.842454E+0	1.840000E-2	6.543480E+0	1.024600E+6
5.370047E+2	8.843712E+0	1.836000E-2	6.543340E+0	1.024600E+6
5.380047E+2	8.838146E+0	1.823000E-2	6.543960E+0	1.024600E+6
5.390048E+2	8.833482E+0	1.830000E-2	6.544480E+0	1.024600E+6
5.400053E+2	8.812188E+0	1.814000E-2	6.546860E+0	1.024600E+6
5.410045E+2	8.777301E+0	1.765000E-2	6.550780E+0	1.024600E+6
5.420053E+2	8.735508E+0	1.714000E-2	6.555510E+0	1.024600E+6
5.430048E+2	8.698150E+0	1.698000E-2	6.559770E+0	1.024600E+6
5.440051E+2	8.655245E+0	1.717000E-2	6.564700E+0	1.024600E+6
5.450045E+2	8.605473E+0	1.686000E-2	6.570470E+0	1.024600E+6
5.460050E+2	8.551585E+0	1.697000E-2	6.576780E+0	1.024600E+6
5.470050E+2	8.503637E+0	1.698000E-2	6.582450E+0	1.024600E+6
5.480045E+2	8.480794E+0	1.691000E-2	6.585170E+0	1.024600E+6
5.490046E+2	8.428938E+0	1.704000E-2	6.591390E+0	1.024600E+6
5.500049E+2	8.392902E+0	1.700000E-2	6.595750E+0	1.024600E+6
5.510043E+2	8.353360E+0	1.709000E-2	6.600570E+0	1.024600E+6
5.520045E+2	8.323703E+0	1.689000E-2	6.604210E+0	1.024600E+6
5.530045E+2	8.296644E+0	1.711000E-2	6.607550E+0	1.024600E+6
5.540046E+2	8.278096E+0	1.697000E-2	6.609850E+0	1.024600E+6
5.550046E+2	8.253044E+0	1.693000E-2	6.612970E+0	1.024600E+6
5.560045E+2	8.235535E+0	1.692000E-2	6.615160E+0	1.024600E+6
5.570048E+2	8.230190E+0	1.687000E-2	6.615830E+0	1.024600E+6
5.580041E+2	8.219280E+0	1.682000E-2	6.617200E+0	1.024600E+6
5.590044E+2	8.210140E+0	1.689000E-2	6.618350E+0	1.024600E+6
5.600047E+2	8.196027E+0	1.690000E-2	6.620130E+0	1.024600E+6
5.610046E+2	8.164301E+0	1.686000E-2	6.624150E+0	1.024600E+6
5.620046E+2	8.127467E+0	1.692000E-2	6.628850E+0	1.024600E+6
5.630046E+2	8.082778E+0	1.697000E-2	6.634600E+0	1.024600E+6
5.640045E+2	7.986571E+0	1.689000E-2	6.647160E+0	1.024600E+6
5.650037E+2	7.838725E+0	1.705000E-2	6.666960E+0	1.024600E+6
5.660037E+2	7.647581E+0	1.694000E-2	6.693500E+0	1.024600E+6
5.670039E+2	7.411073E+0	1.691000E-2	6.727910E+0	1.024600E+6
5.680040E+2	7.063021E+0	1.694000E-2	6.782020E+0	1.024600E+6
5.690040E+2	6.595172E+0	1.707000E-2	6.862190E+0	1.024600E+6
5.700042E+2	6.160042E+0	1.702000E-2	6.945780E+0	1.024600E+6
5.710044E+2	5.841917E+0	1.698000E-2	7.013410E+0	1.024600E+6
5.720038E+2	5.621404E+0	1.708000E-2	7.064010E+0	1.024600E+6
5.730041E+2	5.468149E+0	1.711000E-2	7.101170E+0	1.024600E+6
5.740041E+2	5.365167E+0	1.702000E-2	7.127130E+0	1.024600E+6
5.750037E+2	5.295987E+0	1.717000E-2	7.145040E+0	1.024600E+6
5.760040E+2	5.254305E+0	1.707000E-2	7.156020E+0	1.024600E+6
5.770043E+2	5.227642E+0	1.686000E-2	7.163120E+0	1.024600E+6
5.780042E+2	5.213204E+0	1.702000E-2	7.166990E+0	1.024600E+6
5.790042E+2	5.204877E+0	1.700000E-2	7.169230E+0	1.024600E+6
5.800034E+2	5.199832E+0	1.710000E-2	7.170590E+0	1.024600E+6
5.810041E+2	5.197128E+0	1.692000E-2	7.171320E+0	1.024600E+6
5.820041E+2	5.197831E+0	1.687000E-2	7.171130E+0	1.024600E+6
5.830033E+2	5.196128E+0	1.706000E-2	7.171590E+0	1.024600E+6
5.840041E+2	5.198461E+0	1.698000E-2	7.170960E+0	1.024600E+6
5.850033E+2	5.198646E+0	1.711000E-2	7.170910E+0	1.024600E+6
5.860038E+2	5.200722E+0	1.712000E-2	7.170350E+0	1.024600E+6
5.870032E+2	5.201204E+0	1.714000E-2	7.170220E+0	1.024600E+6
5.880034E+2	5.202428E+0	1.714000E-2	7.169890E+0	1.024600E+6
5.890035E+2	5.204580E+0	1.727000E-2	7.169310E+0	1.024600E+6
5.900032E+2	5.204877E+0	1.719000E-2	7.169230E+0	1.024600E+6
5.910041E+2	5.205397E+0	1.726000E-2	7.169090E+0	1.024600E+6
5.920049E+2	5.206994E+0	1.724000E-2	7.168660E+0	1.024600E+6
5.930048E+2	5.206994E+0	1.738000E-2	7.168660E+0	1.024600E+6
5.940045E+2	5.207923E+0	1.735000E-2	7.168410E+0	1.024600E+6
5.950049E+2	5.209261E+0	1.720000E-2	7.168050E+0	1.024600E+6
5.960059E+2	5.209856E+0	1.726000E-2	7.167890E+0	1.024600E+6
5.970054E+2	5.210599E+0	1.728000E-2	7.167690E+0	1.024600E+6
5.980059E+2	5.211046E+0	1.705000E-2	7.167570E+0	1.024600E+6
5.990065E+2	5.210711E+0	1.718000E-2	7.167660E+0	1.024600E+6
6.000060E+2	5.211864E+0	1.725000E-2	7.167350E+0	1.024600E+6
6.010059E+2	5.213316E+0	1.732000E-2	7.166960E+0	1.024600E+6
6.020063E+2	5.212571E+0	1.710000E-2	7.167160E+0	1.024600E+6
6.030065E+2	5.213948E+0	1.715000E-2	7.166790E+0	1.024600E+6
6.040067E+2	5.214209E+0	1.701000E-2	7.166720E+0	1.024600E+6
6.050068E+2	5.215066E+0	1.705000E-2	7.166490E+0	1.024600E+6
6.060073E+2	5.214954E+0	1.704000E-2	7.166520E+0	1.024600E+6
6.070075E+2	5.216593E+0	1.709000E-2	7.166080E+0	1.024600E+6
6.080073E+2	5.216519E+0	1.696000E-2	7.166100E+0	1.024600E+6
6.090073E+2	5.217040E+0	1.724000E-2	7.165960E+0	1.024600E+6
6.100068E+2	5.217525E+0	1.696000E-2	7.165830E+0	1.024600E+6
6.110070E+2	5.218196E+0	1.706000E-2	7.165650E+0	1.024600E+6
6.120070E+2	5.219165E+0	1.716000E-2	7.165390E+0	1.024600E+6
6.130066E+2	5.218942E+0	1.710000E-2	7.165450E+0	1.024600E+6
6.140073E+2	5.218942E+0	1.733000E-2	7.165450E+0	1.024600E+6
6.150070E+2	5.219986E+0	1.720000E-2	7.165170E+0	1.024600E+6
6.160065E+2	5.219128E+0	1.726000E-2	7.165400E+0	1.024600E+6
6.170070E+2	5.220322E+0	1.704000E-2	7.165080E+0	1.024600E+6
6.180069E+2	5.220471E+0	1.712000E-2	7.165040E+0	1.024600E+6
6.190072E+2	5.217860E+0	1.720000E-2	7.165740E+0	1.024600E+6
6.200072E+2	5.218457E+0	1.709000E-2	7.165580E+0	1.024600E+6
6.210071E+2	5.219762E+0	1.716000E-2	7.165230E+0	1.024600E+6
6.220069E+2	5.222001E+0	1.711000E-2	7.164630E+0	1.024600E+6
6.230067E+2	5.225437E+0	1.696000E-2	7.163710E+0	1.024600E+6
6.240068E+2	5.221926E+0	1.695000E-2	7.164650E+0	1.024600E+6
6.250067E+2	5.222374E+0	1.717000E-2	7.164530E+0	1.024600E+6
6.260063E+2	4.352525E+0	1.702000E-2	7.435360E+0	1.024600E+6
6.270070E+2	3.590468E+0	1.715000E-2	7.758920E+0	1.024600E+6
6.280068E+2	5.218643E+0	1.711000E-2	7.165530E+0	1.024600E+6
6.290061E+2	5.223830E+0	1.704000E-2	7.164140E+0	1.024600E+6
6.300070E+2	5.222524E+0	1.717000E-2	7.164490E+0	1.024600E+6
6.310065E+2	5.224129E+0	1.703000E-2	7.164060E+0	1.024600E+6
6.320070E+2	5.221926E+0	1.725000E-2	7.164650E+0	1.024600E+6
6.330065E+2	5.225250E+0	1.729000E-2	7.163760E+0	1.024600E+6
6.340066E+2	5.224167E+0	1.721000E-2	7.164050E+0	1.024600E+6
6.350070E+2	5.224017E+0	1.728000E-2	7.164090E+0	1.024600E+6
6.360074E+2	5.226670E+0	1.719000E-2	7.163380E+0	1.024600E+6
6.370075E+2	5.225773E+0	1.705000E-2	7.163620E+0	1.024600E+6
6.380077E+2	5.226334E+0	1.715000E-2	7.163470E+0	1.024600E+6
6.390069E+2	5.225362E+0	1.729000E-2	7.163730E+0	1.024600E+6
6.400070E+2	5.227269E+0	1.709000E-2	7.163220E+0	1.024600E+6
6.410075E+2	5.223830E+0	1.706000E-2	7.164140E+0	1.024600E+6
6.420070E+2	5.225661E+0	1.722000E-2	7.163650E+0	1.024600E+6
6.430075E+2	5.222822E+0	1.704000E-2	7.164410E+0	1.024600E+6
6.440076E+2	5.224914E+0	1.701000E-2	7.163850E+0	1.024600E+6
6.450085E+2	5.224241E+0	1.717000E-2	7.164030E+0	1.024600E+6
6.460082E+2	5.226072E+0	1.702000E-2	7.163540E+0	1.024600E+6
6.470084E+2	5.226259E+0	1.700000E-2	7.163490E+0	1.024600E+6
6.480084E+2	5.224204E+0	1.701000E-2	7.164040E+0	1.024600E+6
6.490083E+2	5.227792E+0	1.703000E-2	7.163080E+0	1.024600E+6
6.500077E+2	5.226745E+0	1.724000E-2	7.163360E+0	1.024600E+6
6.510076E+2	5.227194E+0	1.703000E-2	7.163240E+0	1.024600E+6
6.520083E+2	5.235280E+0	2.391000E-2	7.161080E+0	1.024600E+6
6.530079E+2	5.226409E+0	1.846000E-2	7.163450E+0	1.024600E+6
6.540080E+2	5.228540E+0	1.799000E-2	7.162880E+0	1.024600E+6
6.550077E+2	5.227680E+0	1.745000E-2	7.163110E+0	1.024600E+6
6.560076E+2	5.228166E+0	1.808000E-2	7.162980E+0	1.024600E+6
6.570081E+2	5.228129E+0	1.728000E-2	7.162990E+0	1.024600E+6
6.580076E+2	5.228615E+0	1.796000E-2	7.162860E+0	1.024600E+6
6.590079E+2	5.229775E+0	1.734000E-2	7.162550E+0	1.024600E+6
6.600079E+2	5.230710E+0	1.740000E-2	7.162300E+0	1.024600E+6
6.610080E+2	5.225325E+0	1.701000E-2	7.163740E+0	1.024600E+6
6.620082E+2	5.227642E+0	1.698000E-2	7.163120E+0	1.024600E+6
6.630083E+2	5.226820E+0	1.708000E-2	7.163340E+0	1.024600E+6
6.640090E+2	5.227194E+0	1.709000E-2	7.163240E+0	1.024600E+6
6.650092E+2	5.229812E+0	1.711000E-2	7.162540E+0	1.024600E+6
6.660094E+2	5.228577E+0	1.721000E-2	7.162870E+0	1.024600E+6
6.670098E+2	5.225362E+0	1.704000E-2	7.163730E+0	1.024600E+6
6.680091E+2	5.226745E+0	1.684000E-2	7.163360E+0	1.024600E+6
6.690094E+2	5.229999E+0	1.700000E-2	7.162490E+0	1.024600E+6
6.700097E+2	5.231122E+0	1.712000E-2	7.162190E+0	1.024600E+6
6.710099E+2	5.228690E+0	1.698000E-2	7.162840E+0	1.024600E+6
6.720093E+2	5.222300E+0	1.722000E-2	7.164550E+0	1.024600E+6
6.730095E+2	5.234418E+0	1.700000E-2	7.161310E+0	1.024600E+6
6.740099E+2	5.228316E+0	1.686000E-2	7.162940E+0	1.024600E+6
6.750097E+2	5.230186E+0	1.722000E-2	7.162440E+0	1.024600E+6
6.760097E+2	5.226969E+0	1.716000E-2	7.163300E+0	1.024600E+6
6.770093E+2	5.228316E+0	1.713000E-2	7.162940E+0	1.024600E+6
6.780096E+2	5.230448E+0	1.707000E-2	7.162370E+0	1.024600E+6
6.790096E+2	5.228278E+0	1.700000E-2	7.162950E+0	1.024600E+6
6.800089E+2	5.226521E+0	1.703000E-2	7.163420E+0	1.024600E+6
6.810093E+2	5.227194E+0	1.704000E-2	7.163240E+0	1.024600E+6
6.820088E+2	5.230186E+0	1.704000E-2	7.162440E+0	1.024600E+6
6.830092E+2	5.229513E+0	1.720000E-2	7.162620E+0	1.024600E+6
6.840096E+2	5.228390E+0	1.728000E-2	7.162920E+0	1.024600E+6
6.850091E+2	5.230785E+0	1.715000E-2	7.162280E+0	1.024600E+6
6.860093E+2	5.231234E+0	1.726000E-2	7.162160E+0	1.024600E+6
6.870093E+2	5.230074E+0	1.720000E-2	7.162470E+0	1.024600E+6
6.880090E+2	5.229775E+0	1.715000E-2	7.162550E+0	1.024600E+6
6.890094E+2	5.230448E+0	1.722000E-2	7.162370E+0	1.024600E+6
6.900088E+2	5.229475E+0	1.721000E-2	7.162630E+0	1.024600E+6
6.910104E+2	5.229213E+0	1.732000E-2	7.162700E+0	1.024600E+6
6.920104E+2	5.230860E+0	1.740000E-2	7.162260E+0	1.024600E+6
6.930104E+2	5.228727E+0	1.728000E-2	7.162830E+0	1.024600E+6
6.940098E+2	5.230299E+0	1.726000E-2	7.162410E+0	1.024600E+6
6.950102E+2	5.229625E+0	1.743000E-2	7.162590E+0	1.024600E+6
6.960101E+2	5.229737E+0	1.729000E-2	7.162560E+0	1.024600E+6
6.970097E+2	5.229737E+0	1.722000E-2	7.162560E+0	1.024600E+6
6.980098E+2	5.233032E+0	1.709000E-2	7.161680E+0	1.024600E+6
6.990097E+2	5.228503E+0	1.724000E-2	7.162890E+0	1.024600E+6
7.000097E+2	5.231010E+0	1.736000E-2	7.162220E+0	1.024600E+6
7.010098E+2	5.232320E+0	1.731000E-2	7.161870E+0	1.024600E+6
7.020098E+2	5.237155E+0	1.725000E-2	7.160580E+0	1.024600E+6
7.030101E+2	5.243726E+0	1.735000E-2	7.158830E+0	1.024600E+6
7.040093E+2	5.250461E+0	1.740000E-2	7.157040E+0	1.024600E+6
7.050095E+2	5.252609E+0	1.712000E-2	7.156470E+0	1.024600E+6
7.060098E+2	5.266169E+0	1.743000E-2	7.152880E+0	1.024600E+6
7.070099E+2	5.283630E+0	1.716000E-2	7.148280E+0	1.024600E+6
7.080091E+2	5.296751E+0	1.720000E-2	7.144840E+0	1.024600E+6
7.090097E+2	5.315112E+0	1.717000E-2	7.140050E+0	1.024600E+6
7.100095E+2	5.323619E+0	1.711000E-2	7.137840E+0	1.024600E+6
7.110091E+2	5.327360E+0	1.726000E-2	7.136870E+0	1.024600E+6
7.120092E+2	5.330989E+0	1.714000E-2	7.135930E+0	1.024600E+6
7.130099E+2	5.332032E+0	1.709000E-2	7.135660E+0	1.024600E+6
7.140104E+2	5.329946E+0	1.737000E-2	7.136200E+0	1.024600E+6
7.150100E+2	5.336402E+0	1.728000E-2	7.134530E+0	1.024600E+6
7.160100E+2	5.356589E+0	1.722000E-2	7.129330E+0	1.024600E+6
7.170106E+2	5.383375E+0	1.730000E-2	7.122480E+0	1.024600E+6
7.180099E+2	5.401291E+0	1.733000E-2	7.117930E+0	1.024600E+6
7.190101E+2	5.418671E+0	1.723000E-2	7.113540E+0	1.024600E+6
7.200103E+2	5.462713E+0	1.713000E-2	7.102520E+0	1.024600E+6
7.210098E+2	5.492095E+0	1.710000E-2	7.095250E+0	1.024600E+6
7.220112E+2	5.504867E+0	1.715000E-2	7.092110E+0	1.024600E+6
7.230113E+2	5.515439E+0	1.720000E-2	7.089520E+0	1.024600E+6
7.240115E+2	5.532450E+0	1.715000E-2	7.085370E+0	1.024600E+6
7.250124E+2	5.543028E+0	1.714000E-2	7.082800E+0	1.024600E+6
7.260125E+2	5.552855E+0	1.725000E-2	7.080420E+0	1.024600E+6
7.270125E+2	5.570349E+0	1.731000E-2	7.076200E+0	1.024600E+6
7.280119E+2	5.583510E+0	1.729000E-2	7.073040E+0	1.024600E+6
7.290125E+2	5.605993E+0	1.730000E-2	7.067670E+0	1.024600E+6
7.300123E+2	5.648054E+0	1.733000E-2	7.057720E+0	1.024600E+6
7.310124E+2	5.674830E+0	1.724000E-2	7.051450E+0	1.024600E+6
7.320123E+2	5.692884E+0	1.718000E-2	7.047250E+0	1.024600E+6
7.330118E+2	5.705103E+0	1.716000E-2	7.044420E+0	1.024600E+6
7.340122E+2	5.727191E+0	1.710000E-2	7.039330E+0	1.024600E+6
7.350117E+2	5.755343E+0	1.725000E-2	7.032890E+0	1.024600E+6
7.360122E+2	5.789617E+0	1.720000E-2	7.025120E+0	1.024600E+6
7.370122E+2	5.815691E+0	1.704000E-2	7.019260E+0	1.024600E+6
7.380123E+2	5.843763E+0	1.717000E-2	7.013000E+0	1.024600E+6
7.390116E+2	5.867752E+0	1.719000E-2	7.007690E+0	1.024600E+6
7.400122E+2	5.897159E+0	1.730000E-2	7.001230E+0	1.024600E+6
7.410128E+2	5.934750E+0	1.715000E-2	6.993050E+0	1.024600E+6
7.420123E+2	5.974612E+0	1.716000E-2	6.984470E+0	1.024600E+6
7.430130E+2	6.019508E+0	1.722000E-2	6.974920E+0	1.024600E+6
7.440131E+2	6.051963E+0	1.712000E-2	6.968090E+0	1.024600E+6
7.450124E+2	6.073891E+0	1.712000E-2	6.963510E+0	1.024600E+6
7.460122E+2	6.084134E+0	1.722000E-2	6.961380E+0	1.024600E+6
7.470140E+2	6.091124E+0	1.703000E-2	6.959930E+0	1.024600E+6
7.480133E+2	6.101512E+0	1.723000E-2	6.957780E+0	1.024600E+6
7.490149E+2	6.118585E+0	1.713000E-2	6.954260E+0	1.024600E+6
7.500146E+2	6.135346E+0	1.718000E-2	6.950820E+0	1.024600E+6
7.510142E+2	6.159305E+0	1.736000E-2	6.945930E+0	1.024600E+6
7.520149E+2	6.199585E+0	1.732000E-2	6.937780E+0	1.024600E+6
7.530149E+2	6.256116E+0	1.707000E-2	6.926490E+0	1.024600E+6
7.540149E+2	6.302005E+0	1.722000E-2	6.917450E+0	1.024600E+6
7.550147E+2	6.329222E+0	1.729000E-2	6.912140E+0	1.024600E+6
7.560143E+2	6.352700E+0	1.715000E-2	6.907590E+0	1.024600E+6
7.570143E+2	6.381119E+0	1.726000E-2	6.902120E+0	1.024600E+6
7.580144E+2	6.415272E+0	1.712000E-2	6.895600E+0	1.024600E+6
7.590143E+2	6.463612E+0	1.710000E-2	6.886470E+0	1.024600E+6
7.600141E+2	6.503564E+0	1.715000E-2	6.879010E+0	1.024600E+6
7.610139E+2	6.522829E+0	1.699000E-2	6.875440E+0	1.024600E+6
7.620142E+2	6.552370E+0	1.727000E-2	6.870000E+0	1.024600E+6
7.630141E+2	6.578511E+0	1.710000E-2	6.865220E+0	1.024600E+6
7.640142E+2	6.617996E+0	1.712000E-2	6.858060E+0	1.024600E+6
7.650145E+2	6.649602E+0	1.716000E-2	6.852380E+0	1.024600E+6
7.660137E+2	6.673809E+0	1.695000E-2	6.848060E+0	1.024600E+6
7.670138E+2	6.691666E+0	1.700000E-2	6.844890E+0	1.024600E+6
7.680137E+2	6.725970E+0	1.695000E-2	6.838840E+0	1.024600E+6
7.690141E+2	6.768156E+0	1.701000E-2	6.831470E+0	1.024600E+6
7.700143E+2	6.806776E+0	1.715000E-2	6.824790E+0	1.024600E+6
7.710135E+2	6.850107E+0	1.725000E-2	6.817370E+0	1.024600E+6
7.720138E+2	6.873835E+0	1.703000E-2	6.813340E+0	1.024600E+6
7.730142E+2	6.908465E+0	1.694000E-2	6.807500E+0	1.024600E+6
7.740141E+2	6.932292E+0	1.713000E-2	6.803510E+0	1.024600E+6
7.750142E+2	6.953187E+0	1.726000E-2	6.800030E+0	1.024600E+6
7.760138E+2	6.985818E+0	1.714000E-2	6.794630E+0	1.024600E+6
7.770145E+2	7.013817E+0	1.705000E-2	6.790030E+0	1.024600E+6
7.780145E+2	7.032669E+0	1.704000E-2	6.786950E+0	1.024600E+6
7.790151E+2	7.049573E+0	1.690000E-2	6.784200E+0	1.024600E+6
7.800143E+2	7.074343E+0	1.689000E-2	6.780190E+0	1.024600E+6
7.810146E+2	7.108743E+0	1.708000E-2	6.774660E+0	1.024600E+6
7.820150E+2	7.142037E+0	1.694000E-2	6.769350E+0	1.024600E+6
7.830147E+2	7.167607E+0	1.704000E-2	6.765300E+0	1.024600E+6
7.840147E+2	7.189191E+0	1.696000E-2	6.761900E+0	1.024600E+6
7.850149E+2	7.214852E+0	1.705000E-2	6.757880E+0	1.024600E+6
7.860141E+2	7.239184E+0	1.715000E-2	6.754090E+0	1.024600E+6
7.870147E+2	7.259771E+0	1.708000E-2	6.750900E+0	1.024600E+6
7.880148E+2	7.273312E+0	1.704000E-2	6.748810E+0	1.024600E+6
7.890145E+2	7.284292E+0	1.700000E-2	6.747120E+0	1.024600E+6
7.900140E+2	7.298105E+0	1.707000E-2	6.745000E+0	1.024600E+6
7.910149E+2	7.320350E+0	1.691000E-2	6.741600E+0	1.024600E+6
7.920146E+2	7.348315E+0	1.707000E-2	6.737350E+0	1.024600E+6
7.930146E+2	7.379184E+0	1.714000E-2	6.732690E+0	1.024600E+6
7.940141E+2	7.413886E+0	1.701000E-2	6.727490E+0	1.024600E+6
7.950145E+2	7.455551E+0	1.698000E-2	6.721300E+0	1.024600E+6
7.960147E+2	7.501500E+0	1.715000E-2	6.714540E+0	1.024600E+6
7.970140E+2	7.532695E+0	1.722000E-2	6.709990E+0	1.024600E+6
7.980148E+2	7.560090E+0	1.695000E-2	6.706020E+0	1.024600E+6
7.990153E+2	7.581736E+0	1.717000E-2	6.702900E+0	1.024600E+6
8.000154E+2	7.592249E+0	1.697000E-2	6.701390E+0	1.024600E+6
8.010157E+2	7.608170E+0	1.707000E-2	6.699110E+0	1.024600E+6
8.020165E+2	7.627376E+0	1.706000E-2	6.696370E+0	1.024600E+6
8.030164E+2	7.658176E+0	1.709000E-2	6.692000E+0	1.024600E+6
8.040165E+2	7.688045E+0	1.720000E-2	6.687790E+0	1.024600E+6
8.050168E+2	7.715530E+0	1.706000E-2	6.683940E+0	1.024600E+6
8.060171E+2	7.750965E+0	1.711000E-2	6.679010E+0	1.024600E+6
8.070172E+2	7.781076E+0	1.707000E-2	6.674850E+0	1.024600E+6
8.080165E+2	7.808023E+0	1.694000E-2	6.671150E+0	1.024600E+6
8.090174E+2	7.829398E+0	1.727000E-2	6.668230E+0	1.024600E+6
8.100167E+2	7.854706E+0	1.692000E-2	6.664790E+0	1.024600E+6
8.110167E+2	7.876591E+0	1.706000E-2	6.661830E+0	1.024600E+6
8.120167E+2	7.904314E+0	1.711000E-2	6.658100E+0	1.024600E+6
8.130173E+2	7.924184E+0	1.702000E-2	6.655440E+0	1.024600E+6
8.140164E+2	7.938729E+0	1.706000E-2	6.653500E+0	1.024600E+6
8.150173E+2	7.945265E+0	1.713000E-2	6.652630E+0	1.024600E+6
8.160172E+2	7.966893E+0	1.698000E-2	6.649760E+0	1.024600E+6
8.170172E+2	7.971124E+0	1.703000E-2	6.649200E+0	1.024600E+6
8.180165E+2	7.971502E+0	1.705000E-2	6.649150E+0	1.024600E+6
8.190170E+2	7.980129E+0	1.705000E-2	6.648010E+0	1.024600E+6
8.200163E+2	7.983462E+0	1.711000E-2	6.647570E+0	1.024600E+6
8.210165E+2	7.990819E+0	1.714000E-2	6.646600E+0	1.024600E+6
8.220171E+2	8.020591E+0	1.705000E-2	6.642690E+0	1.024600E+6
8.230163E+2	8.046322E+0	1.703000E-2	6.639330E+0	1.024600E+6
8.240164E+2	8.078757E+0	1.701000E-2	6.635120E+0	1.024600E+6
8.250166E+2	8.112188E+0	1.708000E-2	6.630810E+0	1.024600E+6
8.260161E+2	8.145771E+0	1.694000E-2	6.626510E+0	1.024600E+6
8.270166E+2	8.170756E+0	1.703000E-2	6.623330E+0	1.024600E+6
8.280165E+2	8.210776E+0	1.691000E-2	6.618270E+0	1.024600E+6
8.290169E+2	8.250482E+0	1.692000E-2	6.613290E+0	1.024600E+6
8.300175E+2	8.283895E+0	1.706000E-2	6.609130E+0	1.024600E+6
8.310171E+2	8.339488E+0	1.693000E-2	6.602270E+0	1.024600E+6
8.320175E+2	8.374323E+0	1.681000E-2	6.598010E+0	1.024600E+6
8.330178E+2	8.420650E+0	1.697000E-2	6.592390E+0	1.024600E+6
8.340172E+2	8.459721E+0	1.682000E-2	6.587690E+0	1.024600E+6
8.350172E+2	8.488677E+0	1.705000E-2	6.584230E+0	1.024600E+6
8.360169E+2	8.528612E+0	1.757000E-2	6.579490E+0	1.024600E+6
8.370176E+2	8.568860E+0	1.800000E-2	6.574750E+0	1.024600E+6
8.380173E+2	8.612346E+0	1.829000E-2	6.569670E+0	1.024600E+6
8.390171E+2	8.642779E+0	1.879000E-2	6.566140E+0	1.024600E+6
8.400172E+2	8.677654E+0	1.911000E-2	6.562120E+0	1.024600E+6
8.410172E+2	8.709522E+0	1.955000E-2	6.558470E+0	1.024600E+6
8.420171E+2	8.739382E+0	2.001000E-2	6.555070E+0	1.024600E+6
8.430172E+2	8.769501E+0	2.088000E-2	6.551660E+0	1.024600E+6
8.440175E+2	8.799702E+0	2.214000E-2	6.548260E+0	1.024600E+6
8.450175E+2	8.831421E+0	2.336000E-2	6.544710E+0	1.024600E+6
8.460167E+2	8.860354E+0	2.446000E-2	6.541490E+0	1.024600E+6
8.470175E+2	8.890533E+0	2.513000E-2	6.538150E+0	1.024600E+6
8.480169E+2	8.910776E+0	2.588000E-2	6.535920E+0	1.024600E+6
8.490170E+2	8.924892E+0	2.659000E-2	6.534370E+0	1.024600E+6
8.500172E+2	8.942429E+0	2.703000E-2	6.532450E+0	1.024600E+6
8.510170E+2	8.954243E+0	2.695000E-2	6.531160E+0	1.024600E+6
8.520170E+2	8.970956E+0	2.717000E-2	6.529340E+0	1.024600E+6
8.530169E+2	8.978502E+0	2.708000E-2	6.528520E+0	1.024600E+6
8.540168E+2	8.998247E+0	2.697000E-2	6.526380E+0	1.024600E+6
8.550169E+2	9.009720E+0	2.720000E-2	6.525140E+0	1.024600E+6
8.560169E+2	9.027905E+0	2.719000E-2	6.523180E+0	1.024600E+6
8.570170E+2	9.054643E+0	2.706000E-2	6.520310E+0	1.024600E+6
8.580166E+2	9.088273E+0	2.702000E-2	6.516720E+0	1.024600E+6
8.590171E+2	9.120314E+0	2.686000E-2	6.513320E+0	1.024600E+6
8.600177E+2	9.165009E+0	2.707000E-2	6.508610E+0	1.024600E+6
8.610181E+2	9.214007E+0	2.697000E-2	6.503490E+0	1.024600E+6
8.620181E+2	9.267513E+0	2.692000E-2	6.497950E+0	1.024600E+6
8.630176E+2	9.352975E+0	2.720000E-2	6.489210E+0	1.024600E+6
8.640181E+2	9.438443E+0	2.706000E-2	6.480600E+0	1.024600E+6
8.650181E+2	9.554929E+0	2.698000E-2	6.469070E+0	1.024600E+6
8.660183E+2	9.681409E+0	2.704000E-2	6.456810E+0	1.024600E+6
8.670190E+2	9.786096E+0	2.701000E-2	6.446860E+0	1.024600E+6
8.680183E+2	9.905203E+0	2.701000E-2	6.435750E+0	1.024600E+6
8.690189E+2	1.001931E+1	2.684000E-2	6.425310E+0	1.024600E+6
8.700189E+2	1.012503E+1	2.704000E-2	6.415810E+0	1.024600E+6
8.710199E+2	1.021572E+1	2.683000E-2	6.407790E+0	1.024600E+6
8.720191E+2	1.028962E+1	2.707000E-2	6.401340E+0	1.024600E+6
8.730196E+2	1.035437E+1	2.685000E-2	6.395750E+0	1.024600E+6
8.740189E+2	1.041698E+1	2.701000E-2	6.390400E+0	1.024600E+6
8.750198E+2	1.047783E+1	2.707000E-2	6.385250E+0	1.024600E+6
8.760207E+2	1.052561E+1	2.687000E-2	6.381240E+0	1.024600E+6
8.770204E+2	1.056701E+1	2.715000E-2	6.377790E+0	1.024600E+6
8.780204E+2	1.060370E+1	2.687000E-2	6.374750E+0	1.024600E+6
8.790197E+2	1.061461E+1	2.705000E-2	6.373850E+0	1.024600E+6
8.800207E+2	1.060274E+1	2.713000E-2	6.374830E+0	1.024600E+6
8.810210E+2	1.058786E+1	2.706000E-2	6.376060E+0	1.024600E+6
8.820216E+2	1.055774E+1	2.716000E-2	6.378560E+0	1.024600E+6
8.830215E+2	1.052238E+1	2.717000E-2	6.381510E+0	1.024600E+6
8.840210E+2	1.049614E+1	2.695000E-2	6.383710E+0	1.024600E+6
8.850212E+2	1.046004E+1	2.698000E-2	6.386750E+0	1.024600E+6
8.860208E+2	1.041839E+1	2.687000E-2	6.390280E+0	1.024600E+6
8.870210E+2	1.036895E+1	2.693000E-2	6.394500E+0	1.024600E+6
8.880213E+2	1.032429E+1	2.680000E-2	6.398340E+0	1.024600E+6
8.890209E+2	1.031525E+1	2.696000E-2	6.399120E+0	1.024600E+6
8.900212E+2	1.025777E+1	2.698000E-2	6.404110E+0	1.024600E+6
8.910211E+2	1.021276E+1	2.697000E-2	6.408050E+0	1.024600E+6
8.920205E+2	1.017292E+1	2.690000E-2	6.411560E+0	1.024600E+6
8.930211E+2	1.013773E+1	2.698000E-2	6.414680E+0	1.024600E+6
8.940207E+2	1.012055E+1	2.696000E-2	6.416210E+0	1.024600E+6
8.950205E+2	1.006016E+1	2.702000E-2	6.421620E+0	1.024600E+6
8.960208E+2	1.001733E+1	2.698000E-2	6.425490E+0	1.024600E+6
8.970220E+2	9.966254E+0	2.698000E-2	6.430140E+0	1.024600E+6
8.980222E+2	9.935706E+0	2.692000E-2	6.432940E+0	1.024600E+6
8.990222E+2	9.895142E+0	2.706000E-2	6.436680E+0	1.024600E+6
9.000229E+2	9.843585E+0	2.692000E-2	6.441470E+0	1.024600E+6
9.010228E+2	9.801507E+0	2.686000E-2	6.445410E+0	1.024600E+6
9.020226E+2	9.752964E+0	2.698000E-2	6.449990E+0	1.024600E+6
9.030225E+2	9.705444E+0	2.705000E-2	6.454510E+0	1.024600E+6
9.040227E+2	9.654772E+0	2.703000E-2	6.459370E+0	1.024600E+6
9.050221E+2	9.619271E+0	2.689000E-2	6.462800E+0	1.024600E+6
9.060226E+2	9.564325E+0	2.695000E-2	6.468150E+0	1.024600E+6
9.070221E+2	9.513338E+0	2.673000E-2	6.473160E+0	1.024600E+6
9.080222E+2	9.460689E+0	2.702000E-2	6.478380E+0	1.024600E+6
9.090226E+2	9.398974E+0	2.700000E-2	6.484560E+0	1.024600E+6
9.100221E+2	9.346672E+0	2.696000E-2	6.489850E+0	1.024600E+6
9.110225E+2	9.287930E+0	2.697000E-2	6.495850E+0	1.024600E+6
9.120223E+2	9.226517E+0	2.684000E-2	6.502190E+0	1.024600E+6
9.130227E+2	9.177028E+0	2.700000E-2	6.507350E+0	1.024600E+6
9.140224E+2	9.115779E+0	2.689000E-2	6.513800E+0	1.024600E+6
9.150220E+2	9.080010E+0	2.682000E-2	6.517600E+0	1.024600E+6
9.160219E+2	8.981911E+0	2.673000E-2	6.528150E+0	1.024600E+6
9.170220E+2	8.909230E+0	2.494000E-2	6.536090E+0	1.024600E+6
9.180222E+2	8.855401E+0	2.304000E-2	6.542040E+0	1.024600E+6
9.190222E+2	8.816387E+0	2.120000E-2	6.546390E+0	1.024600E+6
9.200223E+2	8.768969E+0	1.995000E-2	6.551720E+0	1.024600E+6
9.210224E+2	8.740439E+0	1.922000E-2	6.554950E+0	1.024600E+6
9.220221E+2	8.713815E+0	1.887000E-2	6.557980E+0	1.024600E+6
9.230222E+2	8.674087E+0	1.874000E-2	6.562530E+0	1.024600E+6
9.240222E+2	8.657325E+0	1.847000E-2	6.564460E+0	1.024600E+6
9.250217E+2	8.639408E+0	1.821000E-2	6.566530E+0	1.024600E+6
9.260222E+2	8.624480E+0	1.799000E-2	6.568260E+0	1.024600E+6
9.270221E+2	8.607620E+0	1.809000E-2	6.570220E+0	1.024600E+6
9.280218E+2	8.598524E+0	1.810000E-2	6.571280E+0	1.024600E+6
9.290223E+2	8.588075E+0	1.787000E-2	6.572500E+0	1.024600E+6
9.300220E+2	8.581919E+0	1.784000E-2	6.573220E+0	1.024600E+6
9.310216E+2	8.578075E+0	1.785000E-2	6.573670E+0	1.024600E+6
9.320219E+2	8.566389E+0	1.778000E-2	6.575040E+0	1.024600E+6
9.330223E+2	8.547593E+0	1.727000E-2	6.577250E+0	1.024600E+6
9.340227E+2	8.512146E+0	1.697000E-2	6.581440E+0	1.024600E+6
9.350232E+2	8.469912E+0	1.702000E-2	6.586470E+0	1.024600E+6
9.360232E+2	8.420899E+0	1.693000E-2	6.592360E+0	1.024600E+6
9.370229E+2	8.360311E+0	1.689000E-2	6.599720E+0	1.024600E+6
9.380228E+2	8.279786E+0	1.704000E-2	6.609640E+0	1.024600E+6
9.390231E+2	8.178403E+0	1.710000E-2	6.622360E+0	1.024600E+6
9.400230E+2	8.055160E+0	1.707000E-2	6.638180E+0	1.024600E+6
9.410228E+2	7.936326E+0	1.712000E-2	6.653820E+0	1.024600E+6
9.420226E+2	7.824338E+0	1.727000E-2	6.668920E+0	1.024600E+6
9.430227E+2	7.720545E+0	1.705000E-2	6.683240E+0	1.024600E+6
9.440229E+2	7.618955E+0	1.711000E-2	6.697570E+0	1.024600E+6
9.450221E+2	7.540475E+0	1.713000E-2	6.708860E+0	1.024600E+6
9.460222E+2	7.469503E+0	1.719000E-2	6.719240E+0	1.024600E+6
9.470221E+2	7.390099E+0	1.718000E-2	6.731050E+0	1.024600E+6
9.480225E+2	7.122568E+0	1.724000E-2	6.772450E+0	1.024600E+6
9.490224E+2	6.658774E+0	1.713000E-2	6.850740E+0	1.024600E+6
9.500225E+2	6.199635E+0	1.718000E-2	6.937770E+0	1.024600E+6
9.510222E+2	5.859285E+0	1.731000E-2	7.009560E+0	1.024600E+6
9.520218E+2	5.623937E+0	1.714000E-2	7.063410E+0	1.024600E+6
9.530226E+2	5.461184E+0	1.717000E-2	7.102900E+0	1.024600E+6
9.540222E+2	5.351880E+0	1.740000E-2	7.130540E+0	1.024600E+6
9.550226E+2	5.282146E+0	1.714000E-2	7.148670E+0	1.024600E+6
9.560237E+2	5.238018E+0	1.737000E-2	7.160350E+0	1.024600E+6
9.570232E+2	5.207217E+0	1.720000E-2	7.168600E+0	1.024600E+6
9.580246E+2	5.190765E+0	1.720000E-2	7.173040E+0	1.024600E+6
9.590238E+2	5.193316E+0	1.705000E-2	7.172350E+0	1.024600E+6
9.600247E+2	5.179587E+0	1.707000E-2	7.176070E+0	1.024600E+6
9.610251E+2	5.173884E+0	1.714000E-2	7.177620E+0	1.024600E+6
9.620255E+2	5.177525E+0	1.711000E-2	7.176630E+0	1.024600E+6
9.630255E+2	5.179918E+0	1.704000E-2	7.175980E+0	1.024600E+6
9.640251E+2	5.178740E+0	1.711000E-2	7.176300E+0	1.024600E+6
9.650253E+2	5.179403E+0	1.706000E-2	7.176120E+0	1.024600E+6
9.660252E+2	5.183824E+0	1.683000E-2	7.174920E+0	1.024600E+6
9.670253E+2	5.184267E+0	1.722000E-2	7.174800E+0	1.024600E+6
9.680263E+2	5.185484E+0	1.702000E-2	7.174470E+0	1.024600E+6
9.690259E+2	5.187256E+0	1.715000E-2	7.173990E+0	1.024600E+6
9.700263E+2	5.185078E+0	1.704000E-2	7.174580E+0	1.024600E+6
9.710264E+2	5.183382E+0	1.704000E-2	7.175040E+0	1.024600E+6
9.720268E+2	5.187403E+0	1.711000E-2	7.173950E+0	1.024600E+6
9.730272E+2	5.191023E+0	1.707000E-2	7.172970E+0	1.024600E+6
9.740264E+2	5.192428E+0	1.704000E-2	7.172590E+0	1.024600E+6
9.750269E+2	5.190210E+0	1.697000E-2	7.173190E+0	1.024600E+6
9.760270E+2	5.191282E+0	1.710000E-2	7.172900E+0	1.024600E+6
9.770268E+2	5.189397E+0	1.716000E-2	7.173410E+0	1.024600E+6
9.780272E+2	5.193797E+0	1.692000E-2	7.172220E+0	1.024600E+6
9.790280E+2	5.195055E+0	1.726000E-2	7.171880E+0	1.024600E+6
9.800276E+2	5.189434E+0	1.721000E-2	7.173400E+0	1.024600E+6
9.810279E+2	5.194722E+0	1.703000E-2	7.171970E+0	1.024600E+6
9.820279E+2	5.193723E+0	1.836000E-2	7.172240E+0	1.024600E+6
9.830281E+2	5.197313E+0	1.699000E-2	7.171270E+0	1.024600E+6
9.840281E+2	5.196128E+0	1.786000E-2	7.171590E+0	1.024600E+6
9.850284E+2	5.194462E+0	1.737000E-2	7.172040E+0	1.024600E+6
9.860289E+2	5.194722E+0	1.686000E-2	7.171970E+0	1.024600E+6
9.870287E+2	5.200055E+0	1.704000E-2	7.170530E+0	1.024600E+6
9.880281E+2	5.197461E+0	1.751000E-2	7.171230E+0	1.024600E+6
9.890282E+2	5.200907E+0	1.759000E-2	7.170300E+0	1.024600E+6
9.900288E+2	5.197535E+0	1.693000E-2	7.171210E+0	1.024600E+6
9.910285E+2	5.200907E+0	1.677000E-2	7.170300E+0	1.024600E+6
9.920283E+2	5.197905E+0	1.761000E-2	7.171110E+0	1.024600E+6
9.930280E+2	5.200796E+0	1.713000E-2	7.170330E+0	1.024600E+6
9.940287E+2	5.206511E+0	1.720000E-2	7.168790E+0	1.024600E+6
9.950285E+2	5.205657E+0	1.697000E-2	7.169020E+0	1.024600E+6
9.960283E+2	5.200870E+0	1.694000E-2	7.170310E+0	1.024600E+6
9.970280E+2	5.200314E+0	1.714000E-2	7.170460E+0	1.024600E+6
9.980278E+2	5.194685E+0	1.717000E-2	7.171980E+0	1.024600E+6
9.990284E+2	5.201315E+0	1.703000E-2	7.170190E+0	1.024600E+6
1.000028E+3	5.202762E+0	1.700000E-2	7.169800E+0	1.024600E+6
1.001028E+3	5.199313E+0	1.723000E-2	7.170730E+0	1.024600E+6
1.002028E+3	5.200055E+0	1.698000E-2	7.170530E+0	1.024600E+6
1.003028E+3	5.206028E+0	1.729000E-2	7.168920E+0	1.024600E+6
1.004028E+3	5.200314E+0	1.709000E-2	7.170460E+0	1.024600E+6
1.005028E+3	5.200055E+0	1.710000E-2	7.170530E+0	1.024600E+6
1.006028E+3	5.208889E+0	1.724000E-2	7.168150E+0	1.024600E+6
1.007028E+3	5.208889E+0	1.723000E-2	7.168150E+0	1.024600E+6
1.008028E+3	5.209075E+0	1.697000E-2	7.168100E+0	1.024600E+6
1.009028E+3	5.224465E+0	1.705000E-2	7.163970E+0	1.024600E+6
1.010028E+3	5.198758E+0	1.720000E-2	7.170880E+0	1.024600E+6
1.011028E+3	5.191984E+0	1.697000E-2	7.172710E+0	1.024600E+6
1.012028E+3	5.205248E+0	1.716000E-2	7.169130E+0	1.024600E+6
1.013028E+3	5.209670E+0	1.723000E-2	7.167940E+0	1.024600E+6
1.014028E+3	5.192391E+0	1.714000E-2	7.172600E+0	1.024600E+6
1.015028E+3	5.194759E+0	1.731000E-2	7.171960E+0	1.024600E+6
1.016028E+3	5.204988E+0	1.703000E-2	7.169200E+0	1.024600E+6
1.017028E+3	5.206734E+0	1.713000E-2	7.168730E+0	1.024600E+6
1.018028E+3	5.203801E+0	1.715000E-2	7.169520E+0	1.024600E+6
1.019028E+3	5.206994E+0	1.719000E-2	7.168660E+0	1.024600E+6
1.020027E+3	5.211678E+0	1.721000E-2	7.167400E+0	1.024600E+6
1.021027E+3	5.217972E+0	1.712000E-2	7.165710E+0	1.024600E+6
1.022027E+3	5.230673E+0	1.728000E-2	7.162310E+0	1.024600E+6
1.023028E+3	5.231721E+0	1.708000E-2	7.162030E+0	1.024600E+6
1.024028E+3	5.241434E+0	1.713000E-2	7.159440E+0	1.024600E+6
1.025028E+3	5.270639E+0	1.700000E-2	7.151700E+0	1.024600E+6
1.026028E+3	5.300346E+0	1.714000E-2	7.143900E+0	1.024600E+6
1.027027E+3	5.320999E+0	1.704000E-2	7.138520E+0	1.024600E+6
1.028027E+3	5.325662E+0	1.723000E-2	7.137310E+0	1.024600E+6
1.029027E+3	5.328672E+0	1.713000E-2	7.136530E+0	1.024600E+6
1.030027E+3	5.329483E+0	1.720000E-2	7.136320E+0	1.024600E+6
1.031028E+3	5.343531E+0	1.721000E-2	7.132690E+0	1.024600E+6
1.032028E+3	5.362279E+0	1.716000E-2	7.127870E+0	1.024600E+6
1.033028E+3	5.369504E+0	1.702000E-2	7.126020E+0	1.024600E+6
1.034027E+3	5.377020E+0	1.702000E-2	7.124100E+0	1.024600E+6
1.035027E+3	5.379372E+0	1.705000E-2	7.123500E+0	1.024600E+6
1.036027E+3	5.383139E+0	1.714000E-2	7.122540E+0	1.024600E+6
1.037028E+3	5.404530E+0	1.710000E-2	7.117110E+0	1.024600E+6
1.038027E+3	5.477068E+0	1.695000E-2	7.098960E+0	1.024600E+6
1.039027E+3	5.549424E+0	1.691000E-2	7.081250E+0	1.024600E+6
1.040027E+3	5.595256E+0	1.699000E-2	7.070230E+0	1.024600E+6
1.041027E+3	5.619758E+0	1.706000E-2	7.064400E+0	1.024600E+6
1.042027E+3	5.639642E+0	1.707000E-2	7.059700E+0	1.024600E+6
1.043027E+3	5.694307E+0	1.690000E-2	7.046920E+0	1.024600E+6
1.044027E+3	5.763472E+0	1.692000E-2	7.031040E+0	1.024600E+6
1.045027E+3	5.811183E+0	1.702000E-2	7.020270E+0	1.024600E+6
1.046027E+3	5.839983E+0	1.689000E-2	7.013840E+0	1.024600E+6
1.047027E+3	5.855669E+0	1.704000E-2	7.010360E+0	1.024600E+6
1.048027E+3	5.866392E+0	1.697000E-2	7.007990E+0	1.024600E+6
1.049027E+3	5.868387E+0	1.713000E-2	7.007550E+0	1.024600E+6
1.050028E+3	5.875240E+0	1.704000E-2	7.006040E+0	1.024600E+6
1.051028E+3	5.881151E+0	1.708000E-2	7.004740E+0	1.024600E+6
1.052028E+3	5.887846E+0	1.724000E-2	7.003270E+0	1.024600E+6
1.053028E+3	5.879103E+0	1.727000E-2	7.005190E+0	1.024600E+6
1.054029E+3	5.880241E+0	1.728000E-2	7.004940E+0	1.024600E+6
1.055029E+3	5.893595E+0	1.725000E-2	7.002010E+0	1.024600E+6
1.056029E+3	5.984951E+0	1.733000E-2	6.982260E+0	1.024600E+6
1.057029E+3	6.064395E+0	1.720000E-2	6.965490E+0	1.024600E+6
1.058029E+3	6.113581E+0	1.711000E-2	6.955290E+0	1.024600E+6
1.059029E+3	6.142434E+0	1.716000E-2	6.949370E+0	1.024600E+6
1.060029E+3	6.164667E+0	1.714000E-2	6.944840E+0	1.024600E+6
1.061029E+3	6.178130E+0	1.712000E-2	6.942110E+0	1.024600E+6
1.062028E+3	6.182282E+0	1.712000E-2	6.941270E+0	1.024600E+6
1.063028E+3	6.194222E+0	1.730000E-2	6.938860E+0	1.024600E+6
1.064028E+3	6.201822E+0	1.723000E-2	6.937330E+0	1.024600E+6
1.065029E+3	6.217768E+0	1.714000E-2	6.934130E+0	1.024600E+6
1.066028E+3	6.230574E+0	1.705000E-2	6.931570E+0	1.024600E+6
1.067029E+3	6.244379E+0	1.710000E-2	6.928820E+0	1.024600E+6
1.068028E+3	6.248556E+0	1.725000E-2	6.927990E+0	1.024600E+6
1.069028E+3	6.257327E+0	1.709000E-2	6.926250E+0	1.024600E+6
1.070028E+3	6.272600E+0	1.720000E-2	6.923230E+0	1.024600E+6
1.071028E+3	6.291447E+0	1.717000E-2	6.919520E+0	1.024600E+6
1.072028E+3	6.318589E+0	1.732000E-2	6.914210E+0	1.024600E+6
1.073028E+3	6.357258E+0	1.722000E-2	6.906710E+0	1.024600E+6
1.074028E+3	6.385711E+0	1.718000E-2	6.901240E+0	1.024600E+6
1.075029E+3	6.406023E+0	1.716000E-2	6.897360E+0	1.024600E+6
1.076029E+3	6.424174E+0	1.714000E-2	6.893910E+0	1.024600E+6
1.077029E+3	6.460630E+0	1.728000E-2	6.887030E+0	1.024600E+6
1.078029E+3	6.494638E+0	1.726000E-2	6.880670E+0	1.024600E+6
1.079029E+3	6.517531E+0	1.718000E-2	6.876420E+0	1.024600E+6
1.080029E+3	6.539364E+0	1.716000E-2	6.872390E+0	1.024600E+6
1.081029E+3	6.554169E+0	1.720000E-2	6.869670E+0	1.024600E+6
1.082029E+3	6.576262E+0	1.710000E-2	6.865630E+0	1.024600E+6
1.083029E+3	6.608088E+0	1.705000E-2	6.859850E+0	1.024600E+6
1.084029E+3	6.639336E+0	1.707000E-2	6.854220E+0	1.024600E+6
1.085029E+3	6.663705E+0	1.700000E-2	6.849860E+0	1.024600E+6
1.086029E+3	6.679321E+0	1.709000E-2	6.847080E+0	1.024600E+6
1.087029E+3	6.688506E+0	1.690000E-2	6.845450E+0	1.024600E+6
1.088029E+3	6.694716E+0	1.706000E-2	6.844350E+0	1.024600E+6
1.089029E+3	6.704786E+0	1.693000E-2	6.842570E+0	1.024600E+6
1.090029E+3	6.707733E+0	1.701000E-2	6.842050E+0	1.024600E+6
1.091029E+3	6.723010E+0	1.688000E-2	6.839360E+0	1.024600E+6
1.092029E+3	6.742059E+0	1.702000E-2	6.836020E+0	1.024600E+6
1.093029E+3	6.756893E+0	1.694000E-2	6.833430E+0	1.024600E+6
1.094029E+3	6.759878E+0	1.688000E-2	6.832910E+0	1.024600E+6
1.095028E+3	6.731440E+0	1.704000E-2	6.837880E+0	1.024600E+6
1.096029E+3	6.804859E+0	1.687000E-2	6.825120E+0	1.024600E+6
1.097029E+3	6.852221E+0	1.717000E-2	6.817010E+0	1.024600E+6
1.098029E+3	6.892063E+0	1.719000E-2	6.810260E+0	1.024600E+6
1.099029E+3	6.924096E+0	1.708000E-2	6.804880E+0	1.024600E+6
1.100029E+3	6.943447E+0	1.713000E-2	6.801650E+0	1.024600E+6
1.101029E+3	6.954752E+0	1.702000E-2	6.799770E+0	1.024600E+6
1.102029E+3	6.968564E+0	1.723000E-2	6.797480E+0	1.024600E+6
1.103029E+3	6.973642E+0	1.712000E-2	6.796640E+0	1.024600E+6
1.104029E+3	6.992374E+0	1.712000E-2	6.793550E+0	1.024600E+6
1.105029E+3	7.007226E+0	1.696000E-2	6.791110E+0	1.024600E+6
1.106028E+3	7.028928E+0	1.721000E-2	6.787560E+0	1.024600E+6
1.107029E+3	7.033650E+0	1.709000E-2	6.786790E+0	1.024600E+6
1.108029E+3	7.043356E+0	1.723000E-2	6.785210E+0	1.024600E+6
1.109029E+3	7.050312E+0	1.709000E-2	6.784080E+0	1.024600E+6
1.110028E+3	7.081598E+0	1.698000E-2	6.779020E+0	1.024600E+6
1.111029E+3	7.117871E+0	1.713000E-2	6.773200E+0	1.024600E+6
1.112029E+3	7.160268E+0	1.696000E-2	6.766460E+0	1.024600E+6
1.113028E+3	7.199960E+0	1.704000E-2	6.760210E+0	1.024600E+6
1.114029E+3	7.229859E+0	1.713000E-2	6.755540E+0	1.024600E+6
1.115028E+3	7.260871E+0	1.703000E-2	6.750730E+0	1.024600E+6
1.116028E+3	7.292953E+0	1.692000E-2	6.745790E+0	1.024600E+6
1.117029E+3	7.315171E+0	1.712000E-2	6.742390E+0	1.024600E+6
1.118028E+3	7.334080E+0	1.703000E-2	6.739510E+0	1.024600E+6
1.119028E+3	7.345214E+0	1.717000E-2	6.737820E+0	1.024600E+6
1.120028E+3	7.360941E+0	1.705000E-2	6.735440E+0	1.024600E+6
1.121028E+3	7.367235E+0	1.715000E-2	6.734490E+0	1.024600E+6
1.122028E+3	7.374002E+0	1.704000E-2	6.733470E+0	1.024600E+6
1.123028E+3	7.375463E+0	1.703000E-2	6.733250E+0	1.024600E+6
1.124028E+3	7.383307E+0	1.694000E-2	6.732070E+0	1.024600E+6
1.125028E+3	7.385237E+0	1.733000E-2	6.731780E+0	1.024600E+6
1.126028E+3	7.402377E+0	1.712000E-2	6.729210E+0	1.024600E+6
1.127028E+3	7.431810E+0	1.715000E-2	6.724820E+0	1.024600E+6
1.128028E+3	7.456295E+0	1.724000E-2	6.721190E+0	1.024600E+6
1.129028E+3	7.474866E+0	1.714000E-2	6.718450E+0	1.024600E+6
1.130028E+3	7.492627E+0	1.717000E-2	6.715840E+0	1.024600E+6
1.131028E+3	7.499520E+0	1.725000E-2	6.714830E+0	1.024600E+6
1.132028E+3	7.492559E+0	1.703000E-2	6.715850E+0	1.024600E+6
1.133028E+3	7.543784E+0	1.712000E-2	6.708380E+0	1.024600E+6
1.134028E+3	7.507585E+0	1.557000E-2	6.713650E+0	1.024600E+6
1.135028E+3	7.524859E+0	1.695000E-2	6.711130E+0	1.024600E+6
1.136028E+3	7.586955E+0	1.714000E-2	6.702150E+0	1.024600E+6
1.137027E+3	7.618534E+0	1.703000E-2	6.697630E+0	1.024600E+6
1.138028E+3	7.657610E+0	1.712000E-2	6.692080E+0	1.024600E+6
1.139028E+3	7.671561E+0	1.715000E-2	6.690110E+0	1.024600E+6
1.140028E+3	7.650474E+0	1.718000E-2	6.693090E+0	1.024600E+6
1.141028E+3	7.681572E+0	1.719000E-2	6.688700E+0	1.024600E+6
1.142028E+3	7.695952E+0	1.704000E-2	6.686680E+0	1.024600E+6
1.143028E+3	7.734184E+0	1.708000E-2	6.681340E+0	1.024600E+6
1.144028E+3	7.789362E+0	1.705000E-2	6.673710E+0	1.024600E+6
1.145028E+3	7.821481E+0	1.697000E-2	6.669310E+0	1.024600E+6
1.146028E+3	7.853820E+0	1.701000E-2	6.664910E+0	1.024600E+6
1.147028E+3	7.885195E+0	1.711000E-2	6.660670E+0	1.024600E+6
1.148028E+3	7.902153E+0	1.703000E-2	6.658390E+0	1.024600E+6
1.149028E+3	7.920593E+0	1.701000E-2	6.655920E+0	1.024600E+6
1.150028E+3	7.934826E+0	1.713000E-2	6.654020E+0	1.024600E+6
1.151029E+3	7.945416E+0	1.692000E-2	6.652610E+0	1.024600E+6
1.152028E+3	7.957386E+0	1.682000E-2	6.651020E+0	1.024600E+6
1.153029E+3	7.964930E+0	1.700000E-2	6.650020E+0	1.024600E+6
1.154028E+3	7.981113E+0	1.707000E-2	6.647880E+0	1.024600E+6
1.155028E+3	7.995148E+0	1.699000E-2	6.646030E+0	1.024600E+6
1.156029E+3	8.010824E+0	1.705000E-2	6.643970E+0	1.024600E+6
1.157029E+3	8.023723E+0	1.708000E-2	6.642280E+0	1.024600E+6
1.158030E+3	8.040259E+0	1.702000E-2	6.640120E+0	1.024600E+6
1.159029E+3	8.044633E+0	1.694000E-2	6.639550E+0	1.024600E+6
1.160029E+3	8.075666E+0	1.699000E-2	6.635520E+0	1.024600E+6
1.161029E+3	8.124735E+0	1.698000E-2	6.629200E+0	1.024600E+6
1.162029E+3	8.163200E+0	1.694000E-2	6.624290E+0	1.024600E+6
1.163029E+3	8.194048E+0	1.703000E-2	6.620380E+0	1.024600E+6
1.164029E+3	8.223339E+0	1.708000E-2	6.616690E+0	1.024600E+6
1.165029E+3	8.242003E+0	1.711000E-2	6.614350E+0	1.024600E+6
1.166029E+3	8.265875E+0	1.745000E-2	6.611370E+0	1.024600E+6
1.167029E+3	8.304164E+0	1.792000E-2	6.606620E+0	1.024600E+6
1.168029E+3	8.356221E+0	1.878000E-2	6.600220E+0	1.024600E+6
1.169029E+3	8.403372E+0	1.902000E-2	6.594480E+0	1.024600E+6
1.170029E+3	8.438320E+0	1.957000E-2	6.590260E+0	1.024600E+6
1.171029E+3	8.470080E+0	2.030000E-2	6.586450E+0	1.024600E+6
1.172029E+3	8.497749E+0	2.111000E-2	6.583150E+0	1.024600E+6
1.173029E+3	8.524469E+0	2.199000E-2	6.579980E+0	1.024600E+6
1.174030E+3	8.534706E+0	2.291000E-2	6.578770E+0	1.024600E+6
1.175030E+3	8.533097E+0	2.353000E-2	6.578960E+0	1.024600E+6
1.176030E+3	8.508606E+0	2.411000E-2	6.581860E+0	1.024600E+6
1.177031E+3	8.576282E+0	2.446000E-2	6.573880E+0	1.024600E+6
1.178030E+3	8.591670E+0	2.461000E-2	6.572080E+0	1.024600E+6
1.179031E+3	8.598096E+0	2.496000E-2	6.571330E+0	1.024600E+6
1.180030E+3	8.603928E+0	2.551000E-2	6.570650E+0	1.024600E+6
1.181031E+3	8.626118E+0	2.654000E-2	6.568070E+0	1.024600E+6
1.182031E+3	8.647191E+0	2.708000E-2	6.565630E+0	1.024600E+6
1.183031E+3	8.688546E+0	2.723000E-2	6.560870E+0	1.024600E+6
1.184031E+3	8.732165E+0	2.694000E-2	6.555890E+0	1.024600E+6
1.185031E+3	8.771272E+0	2.713000E-2	6.551460E+0	1.024600E+6
1.186031E+3	8.804604E+0	2.712000E-2	6.547710E+0	1.024600E+6
1.187031E+3	8.834289E+0	2.689000E-2	6.544390E+0	1.024600E+6
1.188031E+3	8.866755E+0	2.703000E-2	6.540780E+0	1.024600E+6
1.189031E+3	8.896063E+0	2.689000E-2	6.537540E+0	1.024600E+6
1.190031E+3	8.911868E+0	2.708000E-2	6.535800E+0	1.024600E+6
1.191030E+3	8.926807E+0	2.697000E-2	6.534160E+0	1.024600E+6
1.192031E+3	8.943527E+0	2.720000E-2	6.532330E+0	1.024600E+6
1.193031E+3	8.956169E+0	2.696000E-2	6.530950E+0	1.024600E+6
1.194030E+3	8.987904E+0	2.704000E-2	6.527500E+0	1.024600E+6
1.195030E+3	9.061465E+0	2.697000E-2	6.519580E+0	1.024600E+6
1.196030E+3	9.156346E+0	2.718000E-2	6.509520E+0	1.024600E+6
1.197030E+3	9.246301E+0	2.713000E-2	6.500140E+0	1.024600E+6
1.198030E+3	9.322122E+0	2.703000E-2	6.492350E+0	1.024600E+6
1.199030E+3	9.393216E+0	2.694000E-2	6.485140E+0	1.024600E+6
1.200030E+3	9.459885E+0	2.692000E-2	6.478460E+0	1.024600E+6
1.201030E+3	9.531504E+0	2.704000E-2	6.471370E+0	1.024600E+6
1.202030E+3	9.593839E+0	2.705000E-2	6.465270E+0	1.024600E+6
1.203030E+3	9.656122E+0	2.688000E-2	6.459240E+0	1.024600E+6
1.204030E+3	9.701989E+0	2.703000E-2	6.454840E+0	1.024600E+6
1.205030E+3	9.736626E+0	2.714000E-2	6.451540E+0	1.024600E+6
1.206030E+3	9.785459E+0	2.686000E-2	6.446920E+0	1.024600E+6
1.207030E+3	9.841871E+0	2.695000E-2	6.441630E+0	1.024600E+6
1.208030E+3	9.897304E+0	2.692000E-2	6.436480E+0	1.024600E+6
1.209030E+3	9.957947E+0	2.720000E-2	6.430900E+0	1.024600E+6
1.210030E+3	1.002848E+1	2.697000E-2	6.424480E+0	1.024600E+6
1.211030E+3	1.009000E+1	2.711000E-2	6.418940E+0	1.024600E+6
1.212031E+3	1.014752E+1	2.702000E-2	6.413810E+0	1.024600E+6
1.213031E+3	1.020025E+1	2.705000E-2	6.409150E+0	1.024600E+6
1.214031E+3	1.024117E+1	2.702000E-2	6.405560E+0	1.024600E+6
1.215030E+3	1.027764E+1	2.695000E-2	6.402380E+0	1.024600E+6
1.216031E+3	1.031583E+1	2.703000E-2	6.399070E+0	1.024600E+6
1.217032E+3	1.034135E+1	2.701000E-2	6.396870E+0	1.024600E+6
1.218032E+3	1.037151E+1	2.707000E-2	6.394280E+0	1.024600E+6
1.219033E+3	1.039796E+1	2.701000E-2	6.392020E+0	1.024600E+6
1.220032E+3	1.045732E+1	2.704000E-2	6.386980E+0	1.024600E+6
1.221032E+3	1.052322E+1	2.710000E-2	6.381440E+0	1.024600E+6
1.222033E+3	1.059052E+1	2.701000E-2	6.375840E+0	1.024600E+6
1.223032E+3	1.066097E+1	2.701000E-2	6.370040E+0	1.024600E+6
1.224032E+3	1.072430E+1	2.717000E-2	6.364880E+0	1.024600E+6
1.225033E+3	1.080070E+1	2.711000E-2	6.358720E+0	1.024600E+6
1.226033E+3	1.087685E+1	2.700000E-2	6.352650E+0	1.024600E+6
1.227032E+3	1.096769E+1	2.699000E-2	6.345500E+0	1.024600E+6
1.228032E+3	1.103091E+1	2.697000E-2	6.340580E+0	1.024600E+6
1.229032E+3	1.110151E+1	2.703000E-2	6.335140E+0	1.024600E+6
1.230032E+3	1.117693E+1	2.685000E-2	6.329390E+0	1.024600E+6
1.231032E+3	1.117271E+1	2.699000E-2	6.329710E+0	1.024600E+6
1.232032E+3	1.111535E+1	2.702000E-2	6.334080E+0	1.024600E+6
1.233032E+3	1.103814E+1	2.687000E-2	6.340020E+0	1.024600E+6
1.234032E+3	1.094955E+1	2.690000E-2	6.346920E+0	1.024600E+6
1.235032E+3	1.079384E+1	2.704000E-2	6.359270E+0	1.024600E+6
1.236032E+3	1.058074E+1	2.687000E-2	6.376650E+0	1.024600E+6
1.237032E+3	1.034181E+1	2.715000E-2	6.396830E+0	1.024600E+6
1.238032E+3	1.010061E+1	2.697000E-2	6.417990E+0	1.024600E+6
1.239032E+3	9.870438E+0	2.700000E-2	6.438970E+0	1.024600E+6
1.240032E+3	9.661004E+0	2.698000E-2	6.458770E+0	1.024600E+6
1.241032E+3	9.472749E+0	2.699000E-2	6.477180E+0	1.024600E+6
1.242032E+3	9.319575E+0	2.699000E-2	6.492610E+0	1.024600E+6
1.243032E+3	9.191177E+0	2.692000E-2	6.505870E+0	1.024600E+6
1.244032E+3	9.080667E+0	2.684000E-2	6.517530E+0	1.024600E+6
1.245032E+3	8.985506E+0	2.703000E-2	6.527760E+0	1.024600E+6
1.246031E+3	8.876507E+0	2.689000E-2	6.539700E+0	1.024600E+6
1.247032E+3	8.762331E+0	2.691000E-2	6.552470E+0	1.024600E+6
1.248031E+3	8.688895E+0	2.707000E-2	6.560830E+0	1.024600E+6
1.249032E+3	8.736037E+0	2.688000E-2	6.555450E+0	1.024600E+6
1.250032E+3	8.686628E+0	2.698000E-2	6.561090E+0	1.024600E+6
1.251032E+3	8.627238E+0	2.564000E-2	6.567940E+0	1.024600E+6
1.252032E+3	8.605044E+0	2.447000E-2	6.570520E+0	1.024600E+6
1.253031E+3	8.586365E+0	2.373000E-2	6.572700E+0	1.024600E+6
1.254031E+3	8.554644E+0	2.295000E-2	6.576420E+0	1.024600E+6
1.255032E+3	8.539111E+0	2.207000E-2	6.578250E+0	1.024600E+6
1.256032E+3	8.515856E+0	2.132000E-2	6.581000E+0	1.024600E+6
1.257032E+3	8.508185E+0	2.084000E-2	6.581910E+0	1.024600E+6
1.258032E+3	8.490608E+0	2.054000E-2	6.584000E+0	1.024600E+6
1.259032E+3	8.480459E+0	1.970000E-2	6.585210E+0	1.024600E+6
1.260031E+3	8.431261E+0	1.848000E-2	6.591110E+0	1.024600E+6
1.261031E+3	8.310156E+0	1.716000E-2	6.605880E+0	1.024600E+6
1.262032E+3	8.182586E+0	1.717000E-2	6.621830E+0	1.024600E+6
1.263032E+3	8.059855E+0	1.719000E-2	6.637570E+0	1.024600E+6
1.264031E+3	7.950306E+0	1.717000E-2	6.651960E+0	1.024600E+6
1.265032E+3	7.861423E+0	1.701000E-2	6.663880E+0	1.024600E+6
1.266032E+3	7.780641E+0	1.720000E-2	6.674910E+0	1.024600E+6
1.267032E+3	7.643913E+0	1.712000E-2	6.694020E+0	1.024600E+6
1.268031E+3	7.456362E+0	1.717000E-2	6.721180E+0	1.024600E+6
1.269031E+3	7.275454E+0	1.721000E-2	6.748480E+0	1.024600E+6
1.270031E+3	7.127898E+0	1.713000E-2	6.771600E+0	1.024600E+6
1.271031E+3	7.007470E+0	1.705000E-2	6.791070E+0	1.024600E+6
1.272031E+3	6.896098E+0	1.721000E-2	6.809580E+0	1.024600E+6
1.273031E+3	6.645414E+0	1.717000E-2	6.853130E+0	1.024600E+6
1.274031E+3	6.234083E+0	1.723000E-2	6.930870E+0	1.024600E+6
1.275031E+3	5.859466E+0	1.724000E-2	7.009520E+0	1.024600E+6
1.276032E+3	5.609019E+0	1.745000E-2	7.066950E+0	1.024600E+6
1.277032E+3	5.441737E+0	1.728000E-2	7.107750E+0	1.024600E+6
1.278032E+3	5.333540E+0	1.740000E-2	7.135270E+0	1.024600E+6
1.279032E+3	5.263180E+0	1.731000E-2	7.153670E+0	1.024600E+6
1.280032E+3	5.219053E+0	1.737000E-2	7.165420E+0	1.024600E+6
1.281032E+3	5.193094E+0	1.732000E-2	7.172410E+0	1.024600E+6
1.282032E+3	5.177930E+0	1.719000E-2	7.176520E+0	1.024600E+6
1.283032E+3	5.149974E+0	1.729000E-2	7.184150E+0	1.024600E+6
1.284032E+3	5.157643E+0	1.918000E-2	7.182050E+0	1.024600E+6
1.285033E+3	5.151725E+0	2.916000E-2	7.183670E+0	1.024600E+6
1.286033E+3	5.154281E+0	1.600000E-2	7.182970E+0	1.024600E+6
1.287033E+3	5.167422E+0	1.780000E-2	7.179380E+0	1.024600E+6
1.288032E+3	5.166871E+0	1.645000E-2	7.179530E+0	1.024600E+6
1.289032E+3	5.171018E+0	1.731000E-2	7.178400E+0	1.024600E+6
1.291033E+3	5.177562E+0	1.721000E-2	7.176620E+0	1.024600E+6
1.292033E+3	5.173370E+0	1.861000E-2	7.177760E+0	1.024600E+6
1.293033E+3	5.174987E+0	1.716000E-2	7.177320E+0	1.024600E+6
1.294033E+3	5.178151E+0	1.697000E-2	7.176460E+0	1.024600E+6
1.295033E+3	5.176679E+0	1.717000E-2	7.176860E+0	1.024600E+6
1.296033E+3	5.176421E+0	1.704000E-2	7.176930E+0	1.024600E+6
1.297033E+3	5.175171E+0	1.709000E-2	7.177270E+0	1.024600E+6
1.298033E+3	5.178188E+0	1.725000E-2	7.176450E+0	1.024600E+6
1.299033E+3	5.175539E+0	1.732000E-2	7.177170E+0	1.024600E+6
1.300032E+3	5.175208E+0	1.728000E-2	7.177260E+0	1.024600E+6
1.301033E+3	5.178482E+0	1.726000E-2	7.176370E+0	1.024600E+6
1.302033E+3	5.170504E+0	1.724000E-2	7.178540E+0	1.024600E+6
1.303033E+3	5.174362E+0	1.742000E-2	7.177490E+0	1.024600E+6
1.304033E+3	5.180250E+0	1.719000E-2	7.175890E+0	1.024600E+6
1.305033E+3	5.177268E+0	1.727000E-2	7.176700E+0	1.024600E+6
1.306033E+3	5.182682E+0	1.726000E-2	7.175230E+0	1.024600E+6
1.307033E+3	5.172341E+0	1.719000E-2	7.178040E+0	1.024600E+6
1.308033E+3	5.181760E+0	1.728000E-2	7.175480E+0	1.024600E+6
1.309034E+3	5.183566E+0	1.717000E-2	7.174990E+0	1.024600E+6
1.310034E+3	5.183271E+0	1.727000E-2	7.175070E+0	1.024600E+6
1.311034E+3	5.184046E+0	1.701000E-2	7.174860E+0	1.024600E+6
1.312034E+3	5.193686E+0	1.684000E-2	7.172250E+0	1.024600E+6
1.313034E+3	5.212125E+0	1.709000E-2	7.167280E+0	1.024600E+6
1.314034E+3	5.240045E+0	1.702000E-2	7.159810E+0	1.024600E+6
1.315034E+3	5.259816E+0	1.715000E-2	7.154560E+0	1.024600E+6
1.316034E+3	5.283364E+0	1.686000E-2	7.148350E+0	1.024600E+6
1.317034E+3	5.297516E+0	1.705000E-2	7.144640E+0	1.024600E+6
1.318034E+3	5.302604E+0	1.706000E-2	7.143310E+0	1.024600E+6
1.319034E+3	5.305631E+0	1.714000E-2	7.142520E+0	1.024600E+6
1.320034E+3	5.305401E+0	1.727000E-2	7.142580E+0	1.024600E+6
1.321034E+3	5.309082E+0	1.719000E-2	7.141620E+0	1.024600E+6
1.322034E+3	5.308276E+0	1.709000E-2	7.141830E+0	1.024600E+6
1.323034E+3	5.309504E+0	1.720000E-2	7.141510E+0	1.024600E+6
1.324034E+3	5.311155E+0	1.721000E-2	7.141080E+0	1.024600E+6
1.325034E+3	5.313574E+0	1.712000E-2	7.140450E+0	1.024600E+6
1.326033E+3	5.310694E+0	1.688000E-2	7.141200E+0	1.024600E+6
1.327034E+3	5.310387E+0	1.719000E-2	7.141280E+0	1.024600E+6
1.328033E+3	5.311807E+0	1.719000E-2	7.140910E+0	1.024600E+6
1.329034E+3	5.315919E+0	1.713000E-2	7.139840E+0	1.024600E+6
1.330034E+3	5.334777E+0	1.706000E-2	7.134950E+0	1.024600E+6
1.331034E+3	5.326164E+0	1.712000E-2	7.137180E+0	1.024600E+6
1.332034E+3	5.334584E+0	1.727000E-2	7.135000E+0	1.024600E+6
1.333034E+3	5.310924E+0	1.710000E-2	7.141140E+0	1.024600E+6
1.334035E+3	5.313882E+0	1.702000E-2	7.140370E+0	1.024600E+6
1.335034E+3	5.311692E+0	1.713000E-2	7.140940E+0	1.024600E+6
1.336035E+3	5.318843E+0	1.716000E-2	7.139080E+0	1.024600E+6
1.337034E+3	5.311001E+0	1.696000E-2	7.141120E+0	1.024600E+6
1.338034E+3	5.317611E+0	1.702000E-2	7.139400E+0	1.024600E+6
1.339035E+3	5.330950E+0	1.717000E-2	7.135940E+0	1.024600E+6
1.340034E+3	5.347489E+0	1.719000E-2	7.131670E+0	1.024600E+6
1.341035E+3	5.383886E+0	1.713000E-2	7.122350E+0	1.024600E+6
1.342034E+3	5.399238E+0	1.710000E-2	7.118450E+0	1.024600E+6
1.343035E+3	5.422564E+0	1.708000E-2	7.112560E+0	1.024600E+6
1.344035E+3	5.464323E+0	1.711000E-2	7.102120E+0	1.024600E+6
1.345034E+3	5.504826E+0	1.722000E-2	7.092120E+0	1.024600E+6
1.346035E+3	5.530355E+0	1.722000E-2	7.085880E+0	1.024600E+6
1.347035E+3	5.559394E+0	1.717000E-2	7.078840E+0	1.024600E+6
1.348034E+3	5.596931E+0	1.695000E-2	7.069830E+0	1.024600E+6
1.349035E+3	5.633157E+0	1.706000E-2	7.061230E+0	1.024600E+6
1.350035E+3	5.654313E+0	1.713000E-2	7.056250E+0	1.024600E+6
1.351034E+3	5.667763E+0	1.715000E-2	7.053100E+0	1.024600E+6
1.352034E+3	5.671273E+0	1.710000E-2	7.052280E+0	1.024600E+6
1.353034E+3	5.672515E+0	1.712000E-2	7.051990E+0	1.024600E+6
1.354035E+3	5.679120E+0	1.747000E-2	7.050450E+0	1.024600E+6
1.355035E+3	5.683673E+0	1.729000E-2	7.049390E+0	1.024600E+6
1.356035E+3	5.684146E+0	1.707000E-2	7.049280E+0	1.024600E+6
1.357035E+3	5.687156E+0	1.716000E-2	7.048580E+0	1.024600E+6
1.358036E+3	5.720233E+0	1.695000E-2	7.040930E+0	1.024600E+6
1.359035E+3	5.758285E+0	1.697000E-2	7.032220E+0	1.024600E+6
1.360036E+3	5.782752E+0	1.710000E-2	7.026670E+0	1.024600E+6
1.361037E+3	5.810693E+0	1.713000E-2	7.020380E+0	1.024600E+6
1.362037E+3	5.831089E+0	1.714000E-2	7.015820E+0	1.024600E+6
1.363037E+3	5.845654E+0	1.718000E-2	7.012580E+0	1.024600E+6
1.364038E+3	5.870927E+0	1.706000E-2	7.006990E+0	1.024600E+6
1.365038E+3	5.889077E+0	1.712000E-2	7.003000E+0	1.024600E+6
1.366038E+3	5.897068E+0	1.703000E-2	7.001250E+0	1.024600E+6
1.367038E+3	5.909706E+0	1.718000E-2	6.998490E+0	1.024600E+6
1.368038E+3	5.935212E+0	1.709000E-2	6.992950E+0	1.024600E+6
1.369038E+3	5.943122E+0	1.690000E-2	6.991240E+0	1.024600E+6
1.370038E+3	5.966026E+0	1.705000E-2	6.986310E+0	1.024600E+6
1.371038E+3	5.974378E+0	1.703000E-2	6.984520E+0	1.024600E+6
1.372037E+3	5.969896E+0	1.702000E-2	6.985480E+0	1.024600E+6
1.373038E+3	5.975780E+0	1.701000E-2	6.984220E+0	1.024600E+6
1.374038E+3	5.981907E+0	1.723000E-2	6.982910E+0	1.024600E+6
1.375038E+3	6.001953E+0	1.718000E-2	6.978640E+0	1.024600E+6
1.376037E+3	6.006428E+0	1.713000E-2	6.977690E+0	1.024600E+6
1.377037E+3	6.016481E+0	1.728000E-2	6.975560E+0	1.024600E+6
1.378038E+3	6.033870E+0	1.708000E-2	6.971890E+0	1.024600E+6
1.379038E+3	6.070099E+0	1.703000E-2	6.964300E+0	1.024600E+6
1.380038E+3	6.114115E+0	1.693000E-2	6.955180E+0	1.024600E+6
1.381038E+3	6.116300E+0	1.707000E-2	6.954730E+0	1.024600E+6
1.382037E+3	6.163584E+0	1.717000E-2	6.945060E+0	1.024600E+6
1.383037E+3	6.184756E+0	1.739000E-2	6.940770E+0	1.024600E+6
1.384037E+3	6.203563E+0	1.724000E-2	6.936980E+0	1.024600E+6
1.385037E+3	6.237043E+0	1.708000E-2	6.930280E+0	1.024600E+6
1.386038E+3	6.264551E+0	1.710000E-2	6.924820E+0	1.024600E+6
1.387038E+3	6.292161E+0	1.722000E-2	6.919380E+0	1.024600E+6
1.388038E+3	6.323208E+0	1.715000E-2	6.913310E+0	1.024600E+6
1.389039E+3	6.342620E+0	1.698000E-2	6.909540E+0	1.024600E+6
1.390038E+3	6.357362E+0	1.712000E-2	6.906690E+0	1.024600E+6
1.391038E+3	6.351303E+0	1.720000E-2	6.907860E+0	1.024600E+6
1.392039E+3	6.355963E+0	1.717000E-2	6.906960E+0	1.024600E+6
1.393038E+3	6.372108E+0	1.721000E-2	6.903850E+0	1.024600E+6
1.394038E+3	6.400463E+0	1.719000E-2	6.898420E+0	1.024600E+6
1.395038E+3	6.410907E+0	1.701000E-2	6.896430E+0	1.024600E+6
1.396038E+3	6.425124E+0	1.720000E-2	6.893730E+0	1.024600E+6
1.397038E+3	6.477704E+0	1.710000E-2	6.883830E+0	1.024600E+6
1.398038E+3	6.481020E+0	1.701000E-2	6.883210E+0	1.024600E+6
1.399038E+3	6.490398E+0	1.696000E-2	6.881460E+0	1.024600E+6
1.400038E+3	6.494853E+0	1.707000E-2	6.880630E+0	1.024600E+6
1.401038E+3	6.512996E+0	1.694000E-2	6.877260E+0	1.024600E+6
1.402038E+3	6.533067E+0	1.714000E-2	6.873550E+0	1.024600E+6
1.403038E+3	6.542733E+0	1.708000E-2	6.871770E+0	1.024600E+6
1.404038E+3	6.553514E+0	1.708000E-2	6.869790E+0	1.024600E+6
1.405038E+3	6.559407E+0	1.712000E-2	6.868710E+0	1.024600E+6
1.406038E+3	6.562794E+0	1.718000E-2	6.868090E+0	1.024600E+6
1.407038E+3	6.570234E+0	1.702000E-2	6.866730E+0	1.024600E+6
1.408038E+3	6.584881E+0	1.708000E-2	6.864060E+0	1.024600E+6
1.409038E+3	6.600631E+0	1.711000E-2	6.861200E+0	1.024600E+6
1.410039E+3	6.627429E+0	1.714000E-2	6.856360E+0	1.024600E+6
1.411039E+3	6.663985E+0	1.709000E-2	6.849810E+0	1.024600E+6
1.412039E+3	6.698843E+0	1.700000E-2	6.843620E+0	1.024600E+6
1.413039E+3	6.691384E+0	1.732000E-2	6.844940E+0	1.024600E+6
1.414039E+3	6.725970E+0	1.718000E-2	6.838840E+0	1.024600E+6
1.415038E+3	6.752134E+0	1.690000E-2	6.834260E+0	1.024600E+6
1.416038E+3	6.758845E+0	1.709000E-2	6.833090E+0	1.024600E+6
1.417038E+3	6.764992E+0	1.708000E-2	6.832020E+0	1.024600E+6
1.418038E+3	6.776277E+0	1.700000E-2	6.830060E+0	1.024600E+6
1.419038E+3	6.792047E+0	1.709000E-2	6.827330E+0	1.024600E+6
1.420038E+3	6.806543E+0	1.712000E-2	6.824830E+0	1.024600E+6
1.421039E+3	6.819692E+0	1.708000E-2	6.822570E+0	1.024600E+6
1.422038E+3	6.830019E+0	1.695000E-2	6.820800E+0	1.024600E+6
1.423038E+3	6.833585E+0	1.703000E-2	6.820190E+0	1.024600E+6
1.424038E+3	6.851693E+0	1.697000E-2	6.817100E+0	1.024600E+6
1.425038E+3	6.873540E+0	1.694000E-2	6.813390E+0	1.024600E+6
1.426038E+3	6.890758E+0	1.687000E-2	6.810480E+0	1.024600E+6
1.427038E+3	6.912874E+0	1.715000E-2	6.806760E+0	1.024600E+6
1.428039E+3	6.948134E+0	1.708000E-2	6.800870E+0	1.024600E+6
1.429038E+3	6.993104E+0	1.694000E-2	6.793430E+0	1.024600E+6
1.430038E+3	7.044587E+0	1.705000E-2	6.785010E+0	1.024600E+6
1.431039E+3	7.092535E+0	1.691000E-2	6.777260E+0	1.024600E+6
1.432039E+3	7.140150E+0	1.699000E-2	6.769650E+0	1.024600E+6
1.433039E+3	7.190846E+0	1.690000E-2	6.761640E+0	1.024600E+6
1.434039E+3	7.240021E+0	1.696000E-2	6.753960E+0	1.024600E+6
1.435039E+3	7.270263E+0	1.674000E-2	6.749280E+0	1.024600E+6
1.436039E+3	7.298693E+0	1.695000E-2	6.744910E+0	1.024600E+6
1.437039E+3	7.325141E+0	1.706000E-2	6.740870E+0	1.024600E+6
1.438040E+3	7.338030E+0	1.698000E-2	6.738910E+0	1.024600E+6
1.439040E+3	7.355450E+0	1.697000E-2	6.736270E+0	1.024600E+6
1.440040E+3	7.363855E+0	1.714000E-2	6.735000E+0	1.024600E+6
1.441040E+3	7.370285E+0	1.697000E-2	6.734030E+0	1.024600E+6
1.442040E+3	7.374600E+0	1.716000E-2	6.733380E+0	1.024600E+6
1.443039E+3	7.379383E+0	1.702000E-2	6.732660E+0	1.024600E+6
1.444040E+3	7.384971E+0	1.710000E-2	6.731820E+0	1.024600E+6
1.445040E+3	7.392299E+0	1.707000E-2	6.730720E+0	1.024600E+6
1.446040E+3	7.386236E+0	1.700000E-2	6.731630E+0	1.024600E+6
1.447039E+3	7.391832E+0	1.670000E-2	6.730790E+0	1.024600E+6
1.448040E+3	7.360412E+0	1.672000E-2	6.735520E+0	1.024600E+6
1.449041E+3	7.388500E+0	1.684000E-2	6.731290E+0	1.024600E+6
1.450040E+3	7.423477E+0	1.669000E-2	6.726060E+0	1.024600E+6
1.451041E+3	7.457512E+0	1.668000E-2	6.721010E+0	1.024600E+6
1.452041E+3	7.483023E+0	1.660000E-2	6.717250E+0	1.024600E+6
1.453041E+3	7.508064E+0	1.678000E-2	6.713580E+0	1.024600E+6
1.454041E+3	7.536136E+0	1.661000E-2	6.709490E+0	1.024600E+6
1.455040E+3	7.561820E+0	1.698000E-2	6.705770E+0	1.024600E+6
1.456040E+3	7.591761E+0	1.700000E-2	6.701460E+0	1.024600E+6
1.457040E+3	7.622883E+0	1.715000E-2	6.697010E+0	1.024600E+6
1.458041E+3	7.667308E+0	1.716000E-2	6.690710E+0	1.024600E+6
1.459040E+3	7.728149E+0	1.712000E-2	6.682180E+0	1.024600E+6
1.460041E+3	7.782747E+0	1.689000E-2	6.674620E+0	1.024600E+6
1.461040E+3	7.820455E+0	1.692000E-2	6.669450E+0	1.024600E+6
1.462040E+3	7.855222E+0	1.709000E-2	6.664720E+0	1.024600E+6
1.463041E+3	7.886680E+0	1.712000E-2	6.660470E+0	1.024600E+6
1.464041E+3	7.903420E+0	1.700000E-2	6.658220E+0	1.024600E+6
1.465040E+3	7.912596E+0	1.703000E-2	6.656990E+0	1.024600E+6
1.466040E+3	7.936777E+0	1.701000E-2	6.653760E+0	1.024600E+6
1.467041E+3	7.961911E+0	1.713000E-2	6.650420E+0	1.024600E+6
1.468040E+3	7.989833E+0	1.711000E-2	6.646730E+0	1.024600E+6
1.469040E+3	8.018529E+0	1.736000E-2	6.642960E+0	1.024600E+6
1.470040E+3	8.049932E+0	1.778000E-2	6.638860E+0	1.024600E+6
1.471040E+3	8.090056E+0	1.802000E-2	6.633660E+0	1.024600E+6
1.472040E+3	8.134812E+0	1.869000E-2	6.627910E+0	1.024600E+6
1.473040E+3	8.167055E+0	1.937000E-2	6.623800E+0	1.024600E+6
1.474040E+3	8.207283E+0	2.010000E-2	6.618710E+0	1.024600E+6
1.475040E+3	8.248081E+0	2.106000E-2	6.613590E+0	1.024600E+6
1.476040E+3	8.271580E+0	2.209000E-2	6.610660E+0	1.024600E+6
1.477040E+3	8.266919E+0	2.395000E-2	6.611240E+0	1.024600E+6
1.478041E+3	8.301333E+0	2.547000E-2	6.606970E+0	1.024600E+6
1.479041E+3	8.338917E+0	2.661000E-2	6.602340E+0	1.024600E+6
1.480041E+3	8.388292E+0	2.690000E-2	6.596310E+0	1.024600E+6
1.481041E+3	8.416098E+0	2.702000E-2	6.592940E+0	1.024600E+6
1.482040E+3	8.436492E+0	2.712000E-2	6.590480E+0	1.024600E+6
1.483041E+3	8.476606E+0	2.685000E-2	6.585670E+0	1.024600E+6
1.484040E+3	8.507763E+0	2.713000E-2	6.581960E+0	1.024600E+6
1.485041E+3	8.547593E+0	2.715000E-2	6.577250E+0	1.024600E+6
1.486041E+3	8.574404E+0	2.697000E-2	6.574100E+0	1.024600E+6
1.487041E+3	8.587990E+0	2.699000E-2	6.572510E+0	1.024600E+6
1.488041E+3	8.605388E+0	2.707000E-2	6.570480E+0	1.024600E+6
1.489041E+3	8.652212E+0	2.694000E-2	6.565050E+0	1.024600E+6
1.490041E+3	8.700597E+0	2.714000E-2	6.559490E+0	1.024600E+6
1.491040E+3	8.737445E+0	2.717000E-2	6.555290E+0	1.024600E+6
1.492040E+3	8.772513E+0	2.699000E-2	6.551320E+0	1.024600E+6
1.493041E+3	8.828733E+0	2.695000E-2	6.545010E+0	1.024600E+6
1.494041E+3	8.877410E+0	2.705000E-2	6.539600E+0	1.024600E+6
1.495041E+3	8.914780E+0	2.705000E-2	6.535480E+0	1.024600E+6
1.496041E+3	8.961491E+0	2.716000E-2	6.530370E+0	1.024600E+6
1.497040E+3	9.040745E+0	2.698000E-2	6.521800E+0	1.024600E+6
1.498040E+3	9.093820E+0	2.710000E-2	6.516130E+0	1.024600E+6
1.499041E+3	9.143993E+0	2.689000E-2	6.510820E+0	1.024600E+6
1.500040E+3	9.212662E+0	2.697000E-2	6.503630E+0	1.024600E+6
1.501040E+3	9.275671E+0	2.711000E-2	6.497110E+0	1.024600E+6
1.502040E+3	9.349823E+0	2.698000E-2	6.489530E+0	1.024600E+6
1.503040E+3	9.416283E+0	2.698000E-2	6.482820E+0	1.024600E+6
1.504041E+3	9.481308E+0	2.709000E-2	6.476330E+0	1.024600E+6
1.505040E+3	9.541881E+0	2.688000E-2	6.470350E+0	1.024600E+6
1.506040E+3	9.601447E+0	2.698000E-2	6.464530E+0	1.024600E+6
1.507041E+3	9.657887E+0	2.685000E-2	6.459070E+0	1.024600E+6
1.508040E+3	9.707538E+0	2.695000E-2	6.454310E+0	1.024600E+6
1.509040E+3	9.774537E+0	2.692000E-2	6.447950E+0	1.024600E+6
1.510040E+3	9.842299E+0	2.690000E-2	6.441590E+0	1.024600E+6
1.511040E+3	9.901090E+0	2.707000E-2	6.436130E+0	1.024600E+6
1.512040E+3	9.967457E+0	2.703000E-2	6.430030E+0	1.024600E+6
1.513040E+3	1.002759E+1	2.706000E-2	6.424560E+0	1.024600E+6
1.514040E+3	1.009681E+1	2.701000E-2	6.418330E+0	1.024600E+6
1.515040E+3	1.016151E+1	2.707000E-2	6.412570E+0	1.024600E+6
1.516040E+3	1.023305E+1	2.676000E-2	6.406270E+0	1.024600E+6
1.517039E+3	1.030670E+1	2.704000E-2	6.399860E+0	1.024600E+6
1.518040E+3	1.040535E+1	2.698000E-2	6.391390E+0	1.024600E+6
1.519040E+3	1.055546E+1	2.689000E-2	6.378750E+0	1.024600E+6
1.520040E+3	1.069538E+1	2.705000E-2	6.367230E+0	1.024600E+6
1.521039E+3	1.081043E+1	2.711000E-2	6.357940E+0	1.024600E+6
1.522040E+3	1.093630E+1	2.691000E-2	6.347960E+0	1.024600E+6
1.523040E+3	1.101595E+1	2.696000E-2	6.341740E+0	1.024600E+6
1.524040E+3	1.105212E+1	2.706000E-2	6.338940E+0	1.024600E+6
1.525039E+3	1.100990E+1	2.698000E-2	6.342210E+0	1.024600E+6
1.526040E+3	1.093095E+1	2.697000E-2	6.348380E+0	1.024600E+6
1.527040E+3	1.081994E+1	2.714000E-2	6.357180E+0	1.024600E+6
1.528040E+3	1.067736E+1	2.704000E-2	6.368700E+0	1.024600E+6
1.529040E+3	1.056448E+1	2.710000E-2	6.378000E+0	1.024600E+6
1.530040E+3	1.045898E+1	2.697000E-2	6.386840E+0	1.024600E+6
1.531039E+3	1.034088E+1	2.710000E-2	6.396910E+0	1.024600E+6
1.532040E+3	1.022461E+1	2.715000E-2	6.407010E+0	1.024600E+6
1.533040E+3	1.007684E+1	2.684000E-2	6.420120E+0	1.024600E+6
1.534039E+3	9.934509E+0	2.711000E-2	6.433050E+0	1.024600E+6
1.535040E+3	9.794594E+0	2.695000E-2	6.446060E+0	1.024600E+6
1.536039E+3	9.631563E+0	2.682000E-2	6.461610E+0	1.024600E+6
1.537040E+3	9.492705E+0	2.687000E-2	6.475200E+0	1.024600E+6
1.538039E+3	9.351694E+0	2.690000E-2	6.489340E+0	1.024600E+6
1.539039E+3	9.200375E+0	2.693000E-2	6.504910E+0	1.024600E+6
1.540040E+3	9.054083E+0	2.708000E-2	6.520370E+0	1.024600E+6
1.541040E+3	8.929727E+0	2.685000E-2	6.533840E+0	1.024600E+6
1.542039E+3	8.795339E+0	2.694000E-2	6.548750E+0	1.024600E+6
1.543040E+3	8.670435E+0	2.707000E-2	6.562950E+0	1.024600E+6
1.544039E+3	8.556089E+0	2.698000E-2	6.576250E+0	1.024600E+6
1.545039E+3	8.452216E+0	2.684000E-2	6.588590E+0	1.024600E+6
1.546039E+3	8.355240E+0	2.367000E-2	6.600340E+0	1.024600E+6
1.547039E+3	8.269892E+0	2.003000E-2	6.610870E+0	1.024600E+6
1.548039E+3	8.185113E+0	1.847000E-2	6.621510E+0	1.024600E+6
1.549039E+3	8.117249E+0	1.779000E-2	6.630160E+0	1.024600E+6
1.550040E+3	8.056776E+0	1.717000E-2	6.637970E+0	1.024600E+6
1.551039E+3	7.995680E+0	1.691000E-2	6.645960E+0	1.024600E+6
1.552039E+3	7.935801E+0	1.687000E-2	6.653890E+0	1.024600E+6
1.553039E+3	7.891064E+0	1.689000E-2	6.659880E+0	1.024600E+6
1.554039E+3	7.836226E+0	1.703000E-2	6.667300E+0	1.024600E+6
1.555038E+3	7.809045E+0	1.709000E-2	6.671010E+0	1.024600E+6
1.556039E+3	7.773313E+0	1.697000E-2	6.675920E+0	1.024600E+6
1.557039E+3	7.745701E+0	1.698000E-2	6.679740E+0	1.024600E+6
1.558039E+3	7.718753E+0	1.699000E-2	6.683490E+0	1.024600E+6
1.559039E+3	7.693600E+0	1.692000E-2	6.687010E+0	1.024600E+6
1.560039E+3	7.665324E+0	1.706000E-2	6.690990E+0	1.024600E+6
1.561038E+3	7.655419E+0	1.694000E-2	6.692390E+0	1.024600E+6
1.562039E+3	7.642433E+0	1.696000E-2	6.694230E+0	1.024600E+6
1.563039E+3	7.599923E+0	1.704000E-2	6.700290E+0	1.024600E+6
1.564039E+3	7.569235E+0	1.690000E-2	6.704700E+0	1.024600E+6
1.565038E+3	7.549305E+0	1.702000E-2	6.707580E+0	1.024600E+6
1.566039E+3	7.531319E+0	1.707000E-2	6.710190E+0	1.024600E+6
1.567038E+3	7.501091E+0	1.703000E-2	6.714600E+0	1.024600E+6
1.568038E+3	7.457106E+0	1.697000E-2	6.721070E+0	1.024600E+6
1.569038E+3	7.423410E+0	1.694000E-2	6.726070E+0	1.024600E+6
1.570039E+3	7.390099E+0	1.693000E-2	6.731050E+0	1.024600E+6
1.571039E+3	7.348381E+0	1.702000E-2	6.737340E+0	1.024600E+6
1.572038E+3	7.291714E+0	1.689000E-2	6.745980E+0	1.024600E+6
1.573038E+3	7.182832E+0	1.696000E-2	6.762900E+0	1.024600E+6
1.574038E+3	6.975396E+0	1.693000E-2	6.796350E+0	1.024600E+6
1.575039E+3	6.756033E+0	1.688000E-2	6.833580E+0	1.024600E+6
1.576039E+3	6.577030E+0	1.683000E-2	6.865490E+0	1.024600E+6
1.577038E+3	6.445486E+0	1.689000E-2	6.889880E+0	1.024600E+6
1.578038E+3	6.347424E+0	1.691000E-2	6.908610E+0	1.024600E+6
1.579039E+3	6.253796E+0	1.687000E-2	6.926950E+0	1.024600E+6
1.580038E+3	6.070771E+0	1.698000E-2	6.964160E+0	1.024600E+6
1.581038E+3	5.889533E+0	1.691000E-2	7.002900E+0	1.024600E+6
1.582038E+3	5.762373E+0	1.702000E-2	7.031290E+0	1.024600E+6
1.583038E+3	5.606960E+0	1.690000E-2	7.067440E+0	1.024600E+6
1.584038E+3	5.442857E+0	1.692000E-2	7.107470E+0	1.024600E+6
1.585038E+3	5.315573E+0	1.705000E-2	7.139930E+0	1.024600E+6
1.586038E+3	5.243012E+0	1.692000E-2	7.159020E+0	1.024600E+6
1.587038E+3	5.199165E+0	1.705000E-2	7.170770E+0	1.024600E+6
1.588038E+3	5.178040E+0	1.988000E-2	7.176490E+0	1.024600E+6
1.589037E+3	5.165735E+0	1.690000E-2	7.179840E+0	1.024600E+6
1.590038E+3	5.153952E+0	1.816000E-2	7.183060E+0	1.024600E+6
1.591037E+3	5.149974E+0	1.716000E-2	7.184150E+0	1.024600E+6
1.592037E+3	5.144689E+0	1.945000E-2	7.185600E+0	1.024600E+6
1.593038E+3	5.147567E+0	1.803000E-2	7.184810E+0	1.024600E+6
1.594037E+3	5.150521E+0	1.728000E-2	7.184000E+0	1.024600E+6
1.595038E+3	5.151506E+0	1.717000E-2	7.183730E+0	1.024600E+6
1.596038E+3	5.153477E+0	1.713000E-2	7.183190E+0	1.024600E+6
1.597039E+3	5.155194E+0	1.716000E-2	7.182720E+0	1.024600E+6
1.598039E+3	5.155194E+0	1.726000E-2	7.182720E+0	1.024600E+6
1.599038E+3	5.157753E+0	1.737000E-2	7.182020E+0	1.024600E+6
1.600039E+3	5.162364E+0	1.726000E-2	7.180760E+0	1.024600E+6
1.601039E+3	5.164672E+0	1.721000E-2	7.180130E+0	1.024600E+6
1.602039E+3	5.168559E+0	1.732000E-2	7.179070E+0	1.024600E+6
1.603039E+3	5.174105E+0	1.709000E-2	7.177560E+0	1.024600E+6
1.604039E+3	5.182571E+0	1.718000E-2	7.175260E+0	1.024600E+6
1.605039E+3	5.197017E+0	1.708000E-2	7.171350E+0	1.024600E+6
1.606039E+3	5.218718E+0	1.695000E-2	7.165510E+0	1.024600E+6
1.607038E+3	5.229849E+0	1.704000E-2	7.162530E+0	1.024600E+6
1.608039E+3	5.247863E+0	1.702000E-2	7.157730E+0	1.024600E+6
1.609039E+3	5.276786E+0	1.717000E-2	7.150080E+0	1.024600E+6
1.610039E+3	5.297516E+0	1.644000E-2	7.144640E+0	1.024600E+6
1.611039E+3	5.312921E+0	1.728000E-2	7.140620E+0	1.024600E+6
1.612038E+3	5.319343E+0	1.699000E-2	7.138950E+0	1.024600E+6
1.613039E+3	5.315150E+0	1.709000E-2	7.140040E+0	1.024600E+6
1.614038E+3	5.310848E+0	1.711000E-2	7.141160E+0	1.024600E+6
1.615038E+3	5.302834E+0	1.716000E-2	7.143250E+0	1.024600E+6
1.616038E+3	5.307509E+0	1.708000E-2	7.142030E+0	1.024600E+6
1.617038E+3	5.312921E+0	1.686000E-2	7.140620E+0	1.024600E+6
1.618038E+3	5.334816E+0	1.695000E-2	7.134940E+0	1.024600E+6
1.619038E+3	5.357913E+0	1.684000E-2	7.128990E+0	1.024600E+6
1.620038E+3	5.399554E+0	1.700000E-2	7.118370E+0	1.024600E+6
1.621038E+3	5.438540E+0	1.708000E-2	7.108550E+0	1.024600E+6
1.622038E+3	5.486254E+0	1.702000E-2	7.096690E+0	1.024600E+6
1.623038E+3	5.532039E+0	1.688000E-2	7.085470E+0	1.024600E+6
1.624038E+3	5.570017E+0	1.709000E-2	7.076280E+0	1.024600E+6
1.625039E+3	5.584929E+0	1.675000E-2	7.072700E+0	1.024600E+6
1.626039E+3	5.589482E+0	1.706000E-2	7.071610E+0	1.024600E+6
1.627039E+3	5.593037E+0	1.684000E-2	7.070760E+0	1.024600E+6
1.628040E+3	5.579131E+0	1.701000E-2	7.074090E+0	1.024600E+6
1.629040E+3	5.568022E+0	1.686000E-2	7.076760E+0	1.024600E+6
1.630040E+3	5.574841E+0	1.707000E-2	7.075120E+0	1.024600E+6
1.631041E+3	5.581507E+0	1.686000E-2	7.073520E+0	1.024600E+6
1.632041E+3	5.605405E+0	1.705000E-2	7.067810E+0	1.024600E+6
1.633040E+3	5.646140E+0	1.712000E-2	7.058170E+0	1.024600E+6
1.634041E+3	5.674487E+0	1.698000E-2	7.051530E+0	1.024600E+6
1.635041E+3	5.707656E+0	1.699000E-2	7.043830E+0	1.024600E+6
1.636041E+3	5.751307E+0	1.684000E-2	7.033810E+0	1.024600E+6
1.637041E+3	5.776122E+0	1.690000E-2	7.028170E+0	1.024600E+6
1.638041E+3	5.793964E+0	1.698000E-2	7.024140E+0	1.024600E+6
1.639042E+3	5.802629E+0	1.689000E-2	7.022190E+0	1.024600E+6
1.640041E+3	5.808998E+0	1.687000E-2	7.020760E+0	1.024600E+6
1.641042E+3	5.817433E+0	1.703000E-2	7.018870E+0	1.024600E+6
1.642042E+3	5.821010E+0	1.667000E-2	7.018070E+0	1.024600E+6
1.643042E+3	5.822845E+0	1.686000E-2	7.017660E+0	1.024600E+6
1.644042E+3	5.837735E+0	1.673000E-2	7.014340E+0	1.024600E+6
1.645042E+3	5.862724E+0	1.688000E-2	7.008800E+0	1.024600E+6
1.646042E+3	5.884656E+0	1.680000E-2	7.003970E+0	1.024600E+6
1.647043E+3	5.894280E+0	1.686000E-2	7.001860E+0	1.024600E+6
1.648042E+3	5.925200E+0	1.699000E-2	6.995120E+0	1.024600E+6
1.649042E+3	5.938495E+0	1.682000E-2	6.992240E+0	1.024600E+6
1.650042E+3	5.969570E+0	1.667000E-2	6.985550E+0	1.024600E+6
1.651042E+3	5.990907E+0	1.668000E-2	6.980990E+0	1.024600E+6
1.652042E+3	6.002047E+0	1.675000E-2	6.978620E+0	1.024600E+6
1.653042E+3	6.025995E+0	1.677000E-2	6.973550E+0	1.024600E+6
1.654042E+3	6.050341E+0	1.685000E-2	6.968430E+0	1.024600E+6
1.655042E+3	6.076101E+0	1.659000E-2	6.963050E+0	1.024600E+6
1.656042E+3	6.082160E+0	1.666000E-2	6.961790E+0	1.024600E+6
1.657043E+3	6.099384E+0	1.690000E-2	6.958220E+0	1.024600E+6
1.658044E+3	6.117807E+0	1.674000E-2	6.954420E+0	1.024600E+6
1.659044E+3	6.131392E+0	1.677000E-2	6.951630E+0	1.024600E+6
1.660044E+3	6.147183E+0	1.674000E-2	6.948400E+0	1.024600E+6
1.661044E+3	6.164224E+0	1.684000E-2	6.944930E+0	1.024600E+6
1.662044E+3	6.178476E+0	1.681000E-2	6.942040E+0	1.024600E+6
1.663044E+3	6.186588E+0	1.685000E-2	6.940400E+0	1.024600E+6
1.664044E+3	6.189759E+0	1.670000E-2	6.939760E+0	1.024600E+6
1.665044E+3	6.185053E+0	1.674000E-2	6.940710E+0	1.024600E+6
1.666043E+3	6.189412E+0	1.700000E-2	6.939830E+0	1.024600E+6
1.667044E+3	6.191196E+0	1.681000E-2	6.939470E+0	1.024600E+6
1.668043E+3	6.212229E+0	1.698000E-2	6.935240E+0	1.024600E+6
1.669044E+3	6.222565E+0	1.698000E-2	6.933170E+0	1.024600E+6
1.670044E+3	6.249714E+0	1.692000E-2	6.927760E+0	1.024600E+6
1.671043E+3	6.288902E+0	1.689000E-2	6.920020E+0	1.024600E+6
1.672043E+3	6.329994E+0	1.682000E-2	6.911990E+0	1.024600E+6
1.673044E+3	6.385189E+0	1.719000E-2	6.901340E+0	1.024600E+6
1.674043E+3	6.423858E+0	1.683000E-2	6.893970E+0	1.024600E+6
1.675043E+3	6.464731E+0	1.685000E-2	6.886260E+0	1.024600E+6
1.676043E+3	6.502218E+0	1.676000E-2	6.879260E+0	1.024600E+6
1.677043E+3	6.532633E+0	1.665000E-2	6.873630E+0	1.024600E+6
1.678043E+3	6.564708E+0	1.671000E-2	6.867740E+0	1.024600E+6
1.679043E+3	6.592253E+0	1.688000E-2	6.862720E+0	1.024600E+6
1.680043E+3	6.616167E+0	1.673000E-2	6.858390E+0	1.024600E+6
1.681043E+3	6.620934E+0	1.685000E-2	6.857530E+0	1.024600E+6
1.682043E+3	6.624930E+0	1.694000E-2	6.856810E+0	1.024600E+6
1.683043E+3	6.635326E+0	1.683000E-2	6.854940E+0	1.024600E+6
1.684043E+3	6.650831E+0	1.681000E-2	6.852160E+0	1.024600E+6
1.685044E+3	6.684784E+0	1.679000E-2	6.846110E+0	1.024600E+6
1.686044E+3	6.721474E+0	1.671000E-2	6.839630E+0	1.024600E+6
1.687045E+3	6.763383E+0	1.673000E-2	6.832300E+0	1.024600E+6
1.688045E+3	6.800507E+0	1.699000E-2	6.825870E+0	1.024600E+6
1.689045E+3	6.803930E+0	1.698000E-2	6.825280E+0	1.024600E+6
1.690045E+3	6.815033E+0	1.691000E-2	6.823370E+0	1.024600E+6
1.691045E+3	6.831656E+0	1.699000E-2	6.820520E+0	1.024600E+6
1.692044E+3	6.835456E+0	1.699000E-2	6.819870E+0	1.024600E+6
1.693044E+3	6.838909E+0	1.690000E-2	6.819280E+0	1.024600E+6
1.694045E+3	6.850694E+0	1.676000E-2	6.817270E+0	1.024600E+6
1.695044E+3	6.849755E+0	1.709000E-2	6.817430E+0	1.024600E+6
1.696044E+3	6.851340E+0	1.706000E-2	6.817160E+0	1.024600E+6
1.697044E+3	6.854513E+0	1.692000E-2	6.816620E+0	1.024600E+6
1.698044E+3	6.870117E+0	1.690000E-2	6.813970E+0	1.024600E+6
1.699045E+3	6.883471E+0	1.711000E-2	6.811710E+0	1.024600E+6
1.700044E+3	6.897166E+0	1.711000E-2	6.809400E+0	1.024600E+6
1.701044E+3	6.920511E+0	1.687000E-2	6.805480E+0	1.024600E+6
1.702044E+3	6.950960E+0	1.690000E-2	6.800400E+0	1.024600E+6
1.703044E+3	6.958909E+0	1.693000E-2	6.799080E+0	1.024600E+6
1.704044E+3	6.968624E+0	1.708000E-2	6.797470E+0	1.024600E+6
1.705044E+3	6.977515E+0	1.707000E-2	6.796000E+0	1.024600E+6
1.706045E+3	6.997238E+0	1.718000E-2	6.792750E+0	1.024600E+6
1.707044E+3	7.015894E+0	1.700000E-2	6.789690E+0	1.024600E+6
1.708044E+3	7.036044E+0	1.717000E-2	6.786400E+0	1.024600E+6
1.709044E+3	7.046125E+0	1.705000E-2	6.784760E+0	1.024600E+6
1.710044E+3	7.053578E+0	1.707000E-2	6.783550E+0	1.024600E+6
1.711044E+3	7.058081E+0	1.696000E-2	6.782820E+0	1.024600E+6
1.712045E+3	7.065246E+0	1.722000E-2	6.781660E+0	1.024600E+6
1.713045E+3	7.071928E+0	1.697000E-2	6.780580E+0	1.024600E+6
1.714045E+3	7.086504E+0	1.728000E-2	6.778230E+0	1.024600E+6
1.715045E+3	7.101130E+0	1.713000E-2	6.775880E+0	1.024600E+6
1.716045E+3	7.118247E+0	1.688000E-2	6.773140E+0	1.024600E+6
1.717045E+3	7.132355E+0	1.675000E-2	6.770890E+0	1.024600E+6
1.718044E+3	7.160078E+0	1.666000E-2	6.766490E+0	1.024600E+6
1.719046E+3	7.194222E+0	1.670000E-2	6.761110E+0	1.024600E+6
1.720046E+3	7.235966E+0	1.669000E-2	6.754590E+0	1.024600E+6
1.721047E+3	7.268577E+0	1.676000E-2	6.749540E+0	1.024600E+6
1.722047E+3	7.304767E+0	1.685000E-2	6.743980E+0	1.024600E+6
1.723048E+3	7.333422E+0	1.675000E-2	6.739610E+0	1.024600E+6
1.724048E+3	7.362795E+0	1.662000E-2	6.735160E+0	1.024600E+6
1.725048E+3	7.393899E+0	1.667000E-2	6.730480E+0	1.024600E+6
1.726049E+3	7.410604E+0	1.673000E-2	6.727980E+0	1.024600E+6
1.727049E+3	7.421530E+0	1.673000E-2	6.726350E+0	1.024600E+6
1.728049E+3	7.439350E+0	1.688000E-2	6.723700E+0	1.024600E+6
1.729048E+3	7.450820E+0	1.704000E-2	6.722000E+0	1.024600E+6
1.730049E+3	7.470589E+0	1.706000E-2	6.719080E+0	1.024600E+6
1.731049E+3	7.498290E+0	1.681000E-2	6.715010E+0	1.024600E+6
1.732049E+3	7.528500E+0	1.690000E-2	6.710600E+0	1.024600E+6
1.733049E+3	7.568680E+0	1.692000E-2	6.704780E+0	1.024600E+6
1.734048E+3	7.605373E+0	1.689000E-2	6.699510E+0	1.024600E+6
1.735048E+3	7.633351E+0	1.685000E-2	6.695520E+0	1.024600E+6
1.736048E+3	7.653723E+0	1.708000E-2	6.692630E+0	1.024600E+6
1.737048E+3	7.665537E+0	1.717000E-2	6.690960E+0	1.024600E+6
1.738048E+3	7.683350E+0	1.703000E-2	6.688450E+0	1.024600E+6
1.739048E+3	7.694598E+0	1.700000E-2	6.686870E+0	1.024600E+6
1.740048E+3	7.702945E+0	1.697000E-2	6.685700E+0	1.024600E+6
1.741048E+3	7.711736E+0	1.698000E-2	6.684470E+0	1.024600E+6
1.742048E+3	7.723843E+0	1.706000E-2	6.682780E+0	1.024600E+6
1.743048E+3	7.741306E+0	1.716000E-2	6.680350E+0	1.024600E+6
1.744047E+3	7.764766E+0	1.743000E-2	6.677100E+0	1.024600E+6
1.745048E+3	7.795186E+0	1.772000E-2	6.672910E+0	1.024600E+6
1.746048E+3	7.817307E+0	1.784000E-2	6.669880E+0	1.024600E+6
1.747048E+3	7.839608E+0	1.822000E-2	6.666840E+0	1.024600E+6
1.748048E+3	7.850429E+0	1.828000E-2	6.665370E+0	1.024600E+6
1.749048E+3	7.859134E+0	1.835000E-2	6.664190E+0	1.024600E+6
1.750048E+3	7.868446E+0	1.826000E-2	6.662930E+0	1.024600E+6
1.751047E+3	7.874442E+0	1.838000E-2	6.662120E+0	1.024600E+6
1.752048E+3	7.883933E+0	1.862000E-2	6.660840E+0	1.024600E+6
1.753048E+3	7.880817E+0	1.848000E-2	6.661260E+0	1.024600E+6
1.754048E+3	7.892700E+0	1.860000E-2	6.659660E+0	1.024600E+6
1.755048E+3	7.898950E+0	1.867000E-2	6.658820E+0	1.024600E+6
1.756047E+3	7.907745E+0	1.898000E-2	6.657640E+0	1.024600E+6
1.757047E+3	7.924634E+0	1.931000E-2	6.655380E+0	1.024600E+6
1.758047E+3	7.939329E+0	1.966000E-2	6.653420E+0	1.024600E+6
1.759048E+3	7.958969E+0	2.054000E-2	6.650810E+0	1.024600E+6
1.760048E+3	7.995756E+0	2.189000E-2	6.645950E+0	1.024600E+6
1.761047E+3	8.022577E+0	2.355000E-2	6.642430E+0	1.024600E+6
1.762048E+3	8.048088E+0	2.450000E-2	6.639100E+0	1.024600E+6
1.763048E+3	8.068178E+0	2.545000E-2	6.636490E+0	1.024600E+6
1.764047E+3	8.086570E+0	2.614000E-2	6.634110E+0	1.024600E+6
1.765047E+3	8.107442E+0	2.637000E-2	6.631420E+0	1.024600E+6
1.766047E+3	8.132076E+0	2.671000E-2	6.628260E+0	1.024600E+6
1.767048E+3	8.142872E+0	2.674000E-2	6.626880E+0	1.024600E+6
1.768047E+3	8.163043E+0	2.672000E-2	6.624310E+0	1.024600E+6
1.769047E+3	8.190725E+0	2.682000E-2	6.620800E+0	1.024600E+6
1.770047E+3	8.224453E+0	2.684000E-2	6.616550E+0	1.024600E+6
1.771048E+3	8.260819E+0	2.699000E-2	6.612000E+0	1.024600E+6
1.772047E+3	8.307969E+0	2.717000E-2	6.606150E+0	1.024600E+6
1.773047E+3	8.350501E+0	2.719000E-2	6.600920E+0	1.024600E+6
1.774047E+3	8.386893E+0	2.699000E-2	6.596480E+0	1.024600E+6
1.775047E+3	8.405353E+0	2.704000E-2	6.594240E+0	1.024600E+6
1.776047E+3	8.430100E+0	2.702000E-2	6.591250E+0	1.024600E+6
1.777047E+3	8.471920E+0	2.710000E-2	6.586230E+0	1.024600E+6
1.778047E+3	8.503132E+0	2.683000E-2	6.582510E+0	1.024600E+6
1.779047E+3	8.533436E+0	2.710000E-2	6.578920E+0	1.024600E+6
1.780047E+3	8.577306E+0	2.724000E-2	6.573760E+0	1.024600E+6
1.781047E+3	8.628445E+0	2.705000E-2	6.567800E+0	1.024600E+6
1.782047E+3	8.684797E+0	2.687000E-2	6.561300E+0	1.024600E+6
1.783047E+3	8.744669E+0	2.702000E-2	6.554470E+0	1.024600E+6
1.784047E+3	8.807458E+0	2.710000E-2	6.547390E+0	1.024600E+6
1.785046E+3	8.877591E+0	2.693000E-2	6.539580E+0	1.024600E+6
1.786047E+3	8.945632E+0	2.696000E-2	6.532100E+0	1.024600E+6
1.787046E+3	9.026140E+0	2.708000E-2	6.523370E+0	1.024600E+6
1.788047E+3	9.112947E+0	2.696000E-2	6.514100E+0	1.024600E+6
1.789047E+3	9.212950E+0	2.698000E-2	6.503600E+0	1.024600E+6
1.790048E+3	9.328691E+0	2.697000E-2	6.491680E+0	1.024600E+6
1.791048E+3	9.431146E+0	2.698000E-2	6.481330E+0	1.024600E+6
1.792048E+3	9.526322E+0	2.702000E-2	6.471880E+0	1.024600E+6
1.793047E+3	9.604122E+0	2.689000E-2	6.464270E+0	1.024600E+6
1.794047E+3	9.675259E+0	2.706000E-2	6.457400E+0	1.024600E+6
1.795048E+3	9.738731E+0	2.695000E-2	6.451340E+0	1.024600E+6
1.796049E+3	9.784292E+0	2.683000E-2	6.447030E+0	1.024600E+6
1.797049E+3	9.821655E+0	2.695000E-2	6.443520E+0	1.024600E+6
1.798048E+3	9.834589E+0	2.674000E-2	6.442310E+0	1.024600E+6
1.799048E+3	9.823150E+0	2.690000E-2	6.443380E+0	1.024600E+6
1.800048E+3	9.808215E+0	2.704000E-2	6.444780E+0	1.024600E+6
1.801048E+3	9.785884E+0	2.696000E-2	6.446880E+0	1.024600E+6
1.802049E+3	9.757822E+0	2.695000E-2	6.449530E+0	1.024600E+6
1.803048E+3	9.736099E+0	2.691000E-2	6.451590E+0	1.024600E+6
1.804048E+3	9.717393E+0	2.686000E-2	6.453370E+0	1.024600E+6
1.805049E+3	9.693519E+0	2.695000E-2	6.455650E+0	1.024600E+6
1.806049E+3	9.650932E+0	2.703000E-2	6.459740E+0	1.024600E+6
1.807049E+3	9.598876E+0	2.678000E-2	6.464780E+0	1.024600E+6
1.808049E+3	9.540964E+0	2.686000E-2	6.470440E+0	1.024600E+6
1.809049E+3	9.469732E+0	2.695000E-2	6.477480E+0	1.024600E+6
1.810049E+3	9.397683E+0	2.687000E-2	6.484690E+0	1.024600E+6
1.811049E+3	9.339984E+0	2.679000E-2	6.490530E+0	1.024600E+6
1.812049E+3	9.231625E+0	2.668000E-2	6.501660E+0	1.024600E+6
1.813049E+3	9.191369E+0	2.664000E-2	6.505850E+0	1.024600E+6
1.814049E+3	9.122583E+0	2.650000E-2	6.513080E+0	1.024600E+6
1.815049E+3	9.067359E+0	2.656000E-2	6.518950E+0	1.024600E+6
1.816049E+3	9.026697E+0	2.671000E-2	6.523310E+0	1.024600E+6
1.817049E+3	8.982925E+0	2.663000E-2	6.528040E+0	1.024600E+6
1.818048E+3	8.924527E+0	2.675000E-2	6.534410E+0	1.024600E+6
1.819049E+3	8.852791E+0	2.680000E-2	6.542330E+0	1.024600E+6
1.820048E+3	8.799613E+0	2.687000E-2	6.548270E+0	1.024600E+6
1.821049E+3	8.748638E+0	2.668000E-2	6.554020E+0	1.024600E+6
1.822049E+3	8.675218E+0	2.690000E-2	6.562400E+0	1.024600E+6
1.823048E+3	8.606160E+0	2.685000E-2	6.570390E+0	1.024600E+6
1.824049E+3	8.562130E+0	2.686000E-2	6.575540E+0	1.024600E+6
1.825048E+3	8.504311E+0	2.667000E-2	6.582370E+0	1.024600E+6
1.826048E+3	8.449218E+0	2.679000E-2	6.588950E+0	1.024600E+6
1.827048E+3	8.399742E+0	2.683000E-2	6.594920E+0	1.024600E+6
1.828048E+3	8.369238E+0	2.690000E-2	6.598630E+0	1.024600E+6
1.829048E+3	8.330369E+0	2.678000E-2	6.603390E+0	1.024600E+6
1.830049E+3	8.303436E+0	2.673000E-2	6.606710E+0	1.024600E+6
1.831049E+3	8.283411E+0	2.664000E-2	6.609190E+0	1.024600E+6
1.832048E+3	8.264109E+0	2.658000E-2	6.611590E+0	1.024600E+6
1.833048E+3	8.256890E+0	2.674000E-2	6.612490E+0	1.024600E+6
1.834048E+3	8.233540E+0	2.660000E-2	6.615410E+0	1.024600E+6
1.835048E+3	8.218246E+0	2.662000E-2	6.617330E+0	1.024600E+6
1.836048E+3	8.211649E+0	2.663000E-2	6.618160E+0	1.024600E+6
1.837048E+3	8.203634E+0	2.661000E-2	6.619170E+0	1.024600E+6
1.838048E+3	8.186456E+0	2.673000E-2	6.621340E+0	1.024600E+6
1.839048E+3	8.155577E+0	2.638000E-2	6.625260E+0	1.024600E+6
1.840048E+3	8.129888E+0	2.625000E-2	6.628540E+0	1.024600E+6
1.841048E+3	8.105654E+0	2.577000E-2	6.631650E+0	1.024600E+6
1.842048E+3	8.087344E+0	2.512000E-2	6.634010E+0	1.024600E+6
1.843047E+3	8.069181E+0	2.412000E-2	6.636360E+0	1.024600E+6
1.844048E+3	8.047090E+0	2.304000E-2	6.639230E+0	1.024600E+6
1.845047E+3	8.019445E+0	2.190000E-2	6.642840E+0	1.024600E+6
1.846048E+3	7.997352E+0	2.093000E-2	6.645740E+0	1.024600E+6
1.847047E+3	7.978690E+0	2.055000E-2	6.648200E+0	1.024600E+6
1.848048E+3	7.968328E+0	1.998000E-2	6.649570E+0	1.024600E+6
1.849048E+3	7.951510E+0	1.962000E-2	6.651800E+0	1.024600E+6
1.850048E+3	7.940606E+0	1.947000E-2	6.653250E+0	1.024600E+6
1.851048E+3	7.931301E+0	1.915000E-2	6.654490E+0	1.024600E+6
1.852047E+3	7.928004E+0	1.922000E-2	6.654930E+0	1.024600E+6
1.853048E+3	7.925981E+0	1.874000E-2	6.655200E+0	1.024600E+6
1.854048E+3	7.923286E+0	1.859000E-2	6.655560E+0	1.024600E+6
1.855048E+3	7.920069E+0	1.835000E-2	6.655990E+0	1.024600E+6
1.856048E+3	7.892477E+0	1.825000E-2	6.659690E+0	1.024600E+6
1.857048E+3	7.864453E+0	1.790000E-2	6.663470E+0	1.024600E+6
1.858047E+3	7.835271E+0	1.751000E-2	6.667430E+0	1.024600E+6
1.859047E+3	7.803569E+0	1.733000E-2	6.671760E+0	1.024600E+6
1.860047E+3	7.771645E+0	1.698000E-2	6.676150E+0	1.024600E+6
1.861047E+3	7.730591E+0	1.672000E-2	6.681840E+0	1.024600E+6
1.862048E+3	7.675677E+0	1.697000E-2	6.689530E+0	1.024600E+6
1.863047E+3	7.602088E+0	1.701000E-2	6.699980E+0	1.024600E+6
1.864047E+3	7.535723E+0	1.702000E-2	6.709550E+0	1.024600E+6
1.865047E+3	7.463199E+0	1.702000E-2	6.720170E+0	1.024600E+6
1.866048E+3	7.382309E+0	1.701000E-2	6.732220E+0	1.024600E+6
1.867048E+3	7.312617E+0	1.698000E-2	6.742780E+0	1.024600E+6
1.868048E+3	7.247691E+0	1.691000E-2	6.752770E+0	1.024600E+6
1.869048E+3	7.174071E+0	1.686000E-2	6.764280E+0	1.024600E+6
1.870048E+3	7.102689E+0	1.680000E-2	6.775630E+0	1.024600E+6
1.871048E+3	7.043295E+0	1.691000E-2	6.785220E+0	1.024600E+6
1.872048E+3	6.989095E+0	1.702000E-2	6.794090E+0	1.024600E+6
1.873048E+3	6.951863E+0	1.690000E-2	6.800250E+0	1.024600E+6
1.874048E+3	6.925172E+0	1.710000E-2	6.804700E+0	1.024600E+6
1.875048E+3	6.888446E+0	1.712000E-2	6.810870E+0	1.024600E+6
1.876048E+3	6.854454E+0	1.699000E-2	6.816630E+0	1.024600E+6
1.877048E+3	6.834988E+0	1.695000E-2	6.819950E+0	1.024600E+6
1.878048E+3	6.816197E+0	1.678000E-2	6.823170E+0	1.024600E+6
1.879048E+3	6.797666E+0	1.692000E-2	6.826360E+0	1.024600E+6
1.880048E+3	6.791758E+0	1.686000E-2	6.827380E+0	1.024600E+6
1.881048E+3	6.788923E+0	1.682000E-2	6.827870E+0	1.024600E+6
1.882048E+3	6.783375E+0	1.694000E-2	6.828830E+0	1.024600E+6
1.883048E+3	6.779565E+0	1.703000E-2	6.829490E+0	1.024600E+6
1.884048E+3	6.773338E+0	1.717000E-2	6.830570E+0	1.024600E+6
1.885048E+3	6.770573E+0	1.707000E-2	6.831050E+0	1.024600E+6
1.886049E+3	6.770055E+0	1.711000E-2	6.831140E+0	1.024600E+6
1.887048E+3	6.754656E+0	1.711000E-2	6.833820E+0	1.024600E+6
1.888049E+3	6.720677E+0	1.707000E-2	6.839770E+0	1.024600E+6
1.889049E+3	6.679659E+0	1.692000E-2	6.847020E+0	1.024600E+6
1.890049E+3	6.625929E+0	1.707000E-2	6.856630E+0	1.024600E+6
1.891049E+3	6.573302E+0	1.688000E-2	6.866170E+0	1.024600E+6
1.892049E+3	6.499367E+0	1.702000E-2	6.879790E+0	1.024600E+6
1.893048E+3	6.423963E+0	1.688000E-2	6.893950E+0	1.024600E+6
1.894049E+3	6.367793E+0	1.717000E-2	6.904680E+0	1.024600E+6
1.895048E+3	6.325263E+0	1.699000E-2	6.912910E+0	1.024600E+6
1.896049E+3	6.299503E+0	1.695000E-2	6.917940E+0	1.024600E+6
1.897048E+3	6.280209E+0	1.692000E-2	6.921730E+0	1.024600E+6
1.898048E+3	6.267688E+0	1.719000E-2	6.924200E+0	1.024600E+6
1.899048E+3	6.259498E+0	1.717000E-2	6.925820E+0	1.024600E+6
1.900048E+3	6.252082E+0	1.722000E-2	6.927290E+0	1.024600E+6
1.901049E+3	6.249261E+0	1.702000E-2	6.927850E+0	1.024600E+6
1.902048E+3	6.243876E+0	1.705000E-2	6.928920E+0	1.024600E+6
1.903048E+3	6.235688E+0	1.703000E-2	6.930550E+0	1.024600E+6
1.904048E+3	6.238248E+0	1.702000E-2	6.930040E+0	1.024600E+6
1.905048E+3	6.238399E+0	1.726000E-2	6.930010E+0	1.024600E+6
1.906048E+3	6.233130E+0	1.718000E-2	6.931060E+0	1.024600E+6
1.907049E+3	6.222915E+0	1.709000E-2	6.933100E+0	1.024600E+6
1.908048E+3	6.170726E+0	1.722000E-2	6.943610E+0	1.024600E+6
1.909048E+3	6.102383E+0	1.708000E-2	6.957600E+0	1.024600E+6
1.910048E+3	6.032446E+0	1.728000E-2	6.972190E+0	1.024600E+6
1.911048E+3	5.965420E+0	1.719000E-2	6.986440E+0	1.024600E+6
1.912048E+3	5.926398E+0	1.706000E-2	6.994860E+0	1.024600E+6
1.913048E+3	5.889807E+0	1.724000E-2	7.002840E+0	1.024600E+6
1.914048E+3	5.831224E+0	1.721000E-2	7.015790E+0	1.024600E+6
1.915048E+3	5.717367E+0	1.713000E-2	7.041590E+0	1.024600E+6
1.916048E+3	5.587810E+0	1.734000E-2	7.072010E+0	1.024600E+6
1.917048E+3	5.496808E+0	1.734000E-2	7.094090E+0	1.024600E+6
1.918048E+3	5.436105E+0	1.714000E-2	7.109160E+0	1.024600E+6
1.919048E+3	5.379137E+0	1.725000E-2	7.123560E+0	1.024600E+6
1.920048E+3	5.320999E+0	1.738000E-2	7.138520E+0	1.024600E+6
1.921048E+3	5.288011E+0	1.728000E-2	7.147130E+0	1.024600E+6
1.922048E+3	5.263294E+0	1.734000E-2	7.153640E+0	1.024600E+6
1.923048E+3	5.254532E+0	1.736000E-2	7.155960E+0	1.024600E+6
1.924047E+3	5.250913E+0	1.745000E-2	7.156920E+0	1.024600E+6
1.925048E+3	5.238093E+0	1.745000E-2	7.160330E+0	1.024600E+6
1.926048E+3	5.224167E+0	1.745000E-2	7.164050E+0	1.024600E+6
1.927048E+3	5.213539E+0	1.718000E-2	7.166900E+0	1.024600E+6
1.928047E+3	5.200462E+0	1.732000E-2	7.170420E+0	1.024600E+6
1.929048E+3	5.197313E+0	1.796000E-2	7.171270E+0	1.024600E+6
1.930047E+3	5.191726E+0	1.796000E-2	7.172780E+0	1.024600E+6
1.931048E+3	5.190136E+0	1.795000E-2	7.173210E+0	1.024600E+6
1.932047E+3	5.189730E+0	1.708000E-2	7.173320E+0	1.024600E+6
1.933048E+3	5.190580E+0	1.738000E-2	7.173090E+0	1.024600E+6
1.934047E+3	5.195647E+0	1.784000E-2	7.171720E+0	1.024600E+6
1.935047E+3	5.194796E+0	1.723000E-2	7.171950E+0	1.024600E+6
1.936047E+3	5.187477E+0	1.713000E-2	7.173930E+0	1.024600E+6
1.937048E+3	5.185632E+0	1.736000E-2	7.174430E+0	1.024600E+6
1.938048E+3	5.183603E+0	1.740000E-2	7.174980E+0	1.024600E+6
1.939048E+3	5.184894E+0	1.756000E-2	7.174630E+0	1.024600E+6
1.940047E+3	5.184746E+0	1.737000E-2	7.174670E+0	1.024600E+6
1.941048E+3	5.193612E+0	1.740000E-2	7.172270E+0	1.024600E+6
1.942047E+3	5.217823E+0	1.741000E-2	7.165750E+0	1.024600E+6
1.943048E+3	5.244929E+0	1.739000E-2	7.158510E+0	1.024600E+6
1.944047E+3	5.264618E+0	1.731000E-2	7.153290E+0	1.024600E+6
1.945048E+3	5.268176E+0	1.745000E-2	7.152350E+0	1.024600E+6
1.946047E+3	5.281385E+0	1.727000E-2	7.148870E+0	1.024600E+6
1.947047E+3	5.285039E+0	1.745000E-2	7.147910E+0	1.024600E+6
1.948047E+3	5.285534E+0	1.723000E-2	7.147780E+0	1.024600E+6
1.949047E+3	5.287591E+0	1.738000E-2	7.147240E+0	1.024600E+6
1.950047E+3	5.287553E+0	1.733000E-2	7.147250E+0	1.024600E+6
1.951047E+3	5.290909E+0	1.730000E-2	7.146370E+0	1.024600E+6
1.952047E+3	5.292855E+0	1.732000E-2	7.145860E+0	1.024600E+6
1.953047E+3	5.292740E+0	1.749000E-2	7.145890E+0	1.024600E+6
1.954047E+3	5.287477E+0	1.730000E-2	7.147270E+0	1.024600E+6
1.955047E+3	5.298127E+0	1.734000E-2	7.144480E+0	1.024600E+6
1.956048E+3	5.305784E+0	1.745000E-2	7.142480E+0	1.024600E+6
1.957048E+3	5.307893E+0	1.739000E-2	7.141930E+0	1.024600E+6
1.958048E+3	5.309159E+0	1.727000E-2	7.141600E+0	1.024600E+6
1.959049E+3	5.310963E+0	1.719000E-2	7.141130E+0	1.024600E+6
1.960049E+3	5.311308E+0	1.720000E-2	7.141040E+0	1.024600E+6
1.961049E+3	5.314804E+0	1.738000E-2	7.140130E+0	1.024600E+6
1.962049E+3	5.312960E+0	1.745000E-2	7.140610E+0	1.024600E+6
1.963049E+3	5.314381E+0	1.749000E-2	7.140240E+0	1.024600E+6
1.964048E+3	5.315381E+0	1.745000E-2	7.139980E+0	1.024600E+6
1.965049E+3	5.314574E+0	1.744000E-2	7.140190E+0	1.024600E+6
1.966049E+3	5.314228E+0	1.726000E-2	7.140280E+0	1.024600E+6
1.967050E+3	5.323156E+0	1.717000E-2	7.137960E+0	1.024600E+6
1.968050E+3	5.343026E+0	1.729000E-2	7.132820E+0	1.024600E+6
1.969050E+3	5.354097E+0	1.747000E-2	7.129970E+0	1.024600E+6
1.970049E+3	5.374395E+0	1.733000E-2	7.124770E+0	1.024600E+6
1.971049E+3	5.409752E+0	1.734000E-2	7.115790E+0	1.024600E+6
1.972050E+3	5.462431E+0	1.722000E-2	7.102590E+0	1.024600E+6
1.973050E+3	5.502545E+0	1.731000E-2	7.092680E+0	1.024600E+6
1.974050E+3	5.528015E+0	1.737000E-2	7.086450E+0	1.024600E+6
1.975049E+3	5.539361E+0	1.725000E-2	7.083690E+0	1.024600E+6
1.976050E+3	5.550746E+0	1.732000E-2	7.080930E+0	1.024600E+6
1.977049E+3	5.558524E+0	1.731000E-2	7.079050E+0	1.024600E+6
1.978049E+3	5.572761E+0	1.721000E-2	7.075620E+0	1.024600E+6
1.979050E+3	5.587058E+0	1.740000E-2	7.072190E+0	1.024600E+6
1.980050E+3	5.610660E+0	1.717000E-2	7.066560E+0	1.024600E+6
1.981050E+3	5.637861E+0	1.711000E-2	7.060120E+0	1.024600E+6
1.982050E+3	5.655719E+0	1.710000E-2	7.055920E+0	1.024600E+6
1.983050E+3	5.682985E+0	1.729000E-2	7.049550E+0	1.024600E+6
1.984050E+3	5.694781E+0	1.726000E-2	7.046810E+0	1.024600E+6
1.985050E+3	5.729020E+0	1.736000E-2	7.038910E+0	1.024600E+6
1.986050E+3	5.721276E+0	1.730000E-2	7.040690E+0	1.024600E+6
1.987050E+3	5.792632E+0	1.717000E-2	7.024440E+0	1.024600E+6
1.988050E+3	5.846060E+0	1.727000E-2	7.012490E+0	1.024600E+6
1.989050E+3	5.873741E+0	1.725000E-2	7.006370E+0	1.024600E+6
1.990050E+3	5.892545E+0	1.723000E-2	7.002240E+0	1.024600E+6
1.991049E+3	5.914343E+0	1.737000E-2	6.997480E+0	1.024600E+6
1.992049E+3	5.930410E+0	1.729000E-2	6.993990E+0	1.024600E+6
1.993050E+3	5.911358E+0	1.724000E-2	6.998130E+0	1.024600E+6
1.994050E+3	5.919123E+0	1.731000E-2	6.996440E+0	1.024600E+6
1.995050E+3	5.935259E+0	1.721000E-2	6.992940E+0	1.024600E+6
1.996050E+3	5.947617E+0	1.732000E-2	6.990270E+0	1.024600E+6
1.997049E+3	5.957646E+0	1.730000E-2	6.988110E+0	1.024600E+6
1.998050E+3	5.965700E+0	1.721000E-2	6.986380E+0	1.024600E+6
1.999051E+3	5.959693E+0	1.740000E-2	6.987670E+0	1.024600E+6
2.000051E+3	5.967797E+0	1.717000E-2	6.985930E+0	1.024600E+6
2.001050E+3	5.997154E+0	1.728000E-2	6.979660E+0	1.024600E+6
2.002050E+3	5.988092E+0	1.735000E-2	6.981590E+0	1.024600E+6
2.003050E+3	6.021401E+0	1.726000E-2	6.974520E+0	1.024600E+6
2.004050E+3	6.042144E+0	1.717000E-2	6.970150E+0	1.024600E+6
2.005050E+3	6.055020E+0	1.729000E-2	6.967450E+0	1.024600E+6
2.006050E+3	6.083653E+0	1.726000E-2	6.961480E+0	1.024600E+6
2.007050E+3	6.103061E+0	1.720000E-2	6.957460E+0	1.024600E+6
2.008050E+3	6.115183E+0	1.719000E-2	6.954960E+0	1.024600E+6
2.009050E+3	6.123352E+0	1.729000E-2	6.953280E+0	1.024600E+6
2.010050E+3	6.128223E+0	1.732000E-2	6.952280E+0	1.024600E+6
2.011058E+3	6.135346E+0	1.719000E-2	6.950820E+0	1.024600E+6
2.012059E+3	6.158568E+0	1.727000E-2	6.946080E+0	1.024600E+6
2.013058E+3	6.158568E+0	1.719000E-2	6.946080E+0	1.024600E+6
2.014059E+3	6.135981E+0	1.725000E-2	6.950690E+0	1.024600E+6
2.015058E+3	6.153411E+0	1.726000E-2	6.947130E+0	1.024600E+6
2.016059E+3	6.174081E+0	1.747000E-2	6.942930E+0	1.024600E+6
2.017058E+3	6.164814E+0	1.733000E-2	6.944810E+0	1.024600E+6
2.018058E+3	6.193081E+0	1.728000E-2	6.939090E+0	1.024600E+6
2.019058E+3	6.220365E+0	1.728000E-2	6.933610E+0	1.024600E+6
2.020059E+3	6.238650E+0	1.699000E-2	6.929960E+0	1.024600E+6
2.021058E+3	6.233030E+0	1.718000E-2	6.931080E+0	1.024600E+6
2.022058E+3	6.257933E+0	1.719000E-2	6.926130E+0	1.024600E+6
2.023058E+3	6.295218E+0	1.717000E-2	6.918780E+0	1.024600E+6
2.024058E+3	6.333443E+0	1.736000E-2	6.911320E+0	1.024600E+6
2.025058E+3	6.368001E+0	1.717000E-2	6.904640E+0	1.024600E+6
2.026058E+3	6.393080E+0	1.720000E-2	6.899830E+0	1.024600E+6
2.027059E+3	6.411380E+0	1.724000E-2	6.896340E+0	1.024600E+6
2.028058E+3	6.436323E+0	1.704000E-2	6.891610E+0	1.024600E+6
2.029058E+3	6.457649E+0	1.724000E-2	6.887590E+0	1.024600E+6
2.030058E+3	6.470651E+0	1.741000E-2	6.885150E+0	1.024600E+6
2.031058E+3	6.478452E+0	1.741000E-2	6.883690E+0	1.024600E+6
2.032058E+3	6.491363E+0	1.729000E-2	6.881280E+0	1.024600E+6
2.033058E+3	6.510299E+0	1.725000E-2	6.877760E+0	1.024600E+6
2.034058E+3	6.530681E+0	1.716000E-2	6.873990E+0	1.024600E+6
2.035058E+3	6.539364E+0	1.733000E-2	6.872390E+0	1.024600E+6
2.036058E+3	6.549536E+0	1.711000E-2	6.870520E+0	1.024600E+6
2.037057E+3	6.554005E+0	1.723000E-2	6.869700E+0	1.024600E+6
2.038058E+3	6.563013E+0	1.716000E-2	6.868050E+0	1.024600E+6
2.039058E+3	6.566348E+0	1.724000E-2	6.867440E+0	1.024600E+6
2.040058E+3	6.566950E+0	1.732000E-2	6.867330E+0	1.024600E+6
2.041057E+3	6.573247E+0	1.715000E-2	6.866180E+0	1.024600E+6
2.042057E+3	6.572589E+0	1.735000E-2	6.866300E+0	1.024600E+6
2.043058E+3	6.586475E+0	1.731000E-2	6.863770E+0	1.024600E+6
2.044059E+3	6.602342E+0	1.726000E-2	6.860890E+0	1.024600E+6
2.045058E+3	6.615447E+0	1.730000E-2	6.858520E+0	1.024600E+6
2.046058E+3	6.637664E+0	1.740000E-2	6.854520E+0	1.024600E+6
2.047059E+3	6.657207E+0	1.739000E-2	6.851020E+0	1.024600E+6
2.048059E+3	6.686081E+0	1.730000E-2	6.845880E+0	1.024600E+6
2.049060E+3	6.716699E+0	1.717000E-2	6.840470E+0	1.024600E+6
2.050059E+3	6.747208E+0	1.725000E-2	6.835120E+0	1.024600E+6
2.051061E+3	6.778468E+0	1.721000E-2	6.829680E+0	1.024600E+6
2.052061E+3	6.811193E+0	1.713000E-2	6.824030E+0	1.024600E+6
2.053060E+3	6.842541E+0	1.721000E-2	6.818660E+0	1.024600E+6
2.054060E+3	6.885780E+0	1.725000E-2	6.811320E+0	1.024600E+6
2.055060E+3	6.917287E+0	1.718000E-2	6.806020E+0	1.024600E+6
2.056061E+3	6.933011E+0	1.718000E-2	6.803390E+0	1.024600E+6
2.057061E+3	6.947833E+0	1.711000E-2	6.800920E+0	1.024600E+6
2.058060E+3	6.966450E+0	1.719000E-2	6.797830E+0	1.024600E+6
2.059060E+3	6.974549E+0	1.718000E-2	6.796490E+0	1.024600E+6
2.060060E+3	6.986849E+0	1.717000E-2	6.794460E+0	1.024600E+6
2.061061E+3	6.979029E+0	1.720000E-2	6.795750E+0	1.024600E+6
2.062061E+3	6.991828E+0	1.725000E-2	6.793640E+0	1.024600E+6
2.063061E+3	6.991342E+0	1.738000E-2	6.793720E+0	1.024600E+6
2.064061E+3	6.996934E+0	1.735000E-2	6.792800E+0	1.024600E+6
2.065061E+3	7.002534E+0	1.737000E-2	6.791880E+0	1.024600E+6
2.066061E+3	6.996873E+0	1.720000E-2	6.792810E+0	1.024600E+6
2.067061E+3	7.003752E+0	1.731000E-2	6.791680E+0	1.024600E+6
2.068062E+3	6.998394E+0	1.759000E-2	6.792560E+0	1.024600E+6
2.069062E+3	7.000950E+0	1.749000E-2	6.792140E+0	1.024600E+6
2.070062E+3	7.016688E+0	1.738000E-2	6.789560E+0	1.024600E+6
2.071062E+3	7.030338E+0	1.731000E-2	6.787330E+0	1.024600E+6
2.072062E+3	7.039484E+0	1.747000E-2	6.785840E+0	1.024600E+6
2.073062E+3	7.061168E+0	1.743000E-2	6.782320E+0	1.024600E+6
2.074062E+3	7.068153E+0	1.741000E-2	6.781190E+0	1.024600E+6
2.075062E+3	7.084392E+0	1.745000E-2	6.778570E+0	1.024600E+6
2.076062E+3	7.106870E+0	1.736000E-2	6.774960E+0	1.024600E+6
2.077062E+3	7.119812E+0	1.736000E-2	6.772890E+0	1.024600E+6
2.078061E+3	7.133297E+0	1.740000E-2	6.770740E+0	1.024600E+6
2.079062E+3	7.163303E+0	1.722000E-2	6.765980E+0	1.024600E+6
2.080062E+3	7.179401E+0	1.732000E-2	6.763440E+0	1.024600E+6
2.081062E+3	7.221964E+0	1.728000E-2	6.756770E+0	1.024600E+6
2.082062E+3	7.258865E+0	1.743000E-2	6.751040E+0	1.024600E+6
2.083062E+3	7.293605E+0	1.724000E-2	6.745690E+0	1.024600E+6
2.084062E+3	7.326323E+0	1.731000E-2	6.740690E+0	1.024600E+6
2.085062E+3	7.334606E+0	1.755000E-2	6.739430E+0	1.024600E+6
2.086062E+3	7.351353E+0	1.726000E-2	6.736890E+0	1.024600E+6
2.087061E+3	7.371281E+0	1.729000E-2	6.733880E+0	1.024600E+6
2.088062E+3	7.393232E+0	1.720000E-2	6.730580E+0	1.024600E+6
2.089061E+3	7.414221E+0	1.725000E-2	6.727440E+0	1.024600E+6
2.090061E+3	7.426566E+0	1.731000E-2	6.725600E+0	1.024600E+6
2.091062E+3	7.425894E+0	1.730000E-2	6.725700E+0	1.024600E+6
2.092062E+3	7.426566E+0	1.732000E-2	6.725600E+0	1.024600E+6
2.093062E+3	7.452576E+0	1.714000E-2	6.721740E+0	1.024600E+6
2.094062E+3	7.457377E+0	1.724000E-2	6.721030E+0	1.024600E+6
2.095061E+3	7.475817E+0	1.716000E-2	6.718310E+0	1.024600E+6
2.096062E+3	7.455957E+0	1.725000E-2	6.721240E+0	1.024600E+6
2.097062E+3	7.432617E+0	1.714000E-2	6.724700E+0	1.024600E+6
2.098061E+3	7.472964E+0	1.697000E-2	6.718730E+0	1.024600E+6
2.099061E+3	7.486290E+0	1.721000E-2	6.716770E+0	1.024600E+6
2.100061E+3	7.500954E+0	1.699000E-2	6.714620E+0	1.024600E+6
2.101062E+3	7.513336E+0	1.704000E-2	6.712810E+0	1.024600E+6
2.102061E+3	7.531181E+0	1.734000E-2	6.710210E+0	1.024600E+6
2.103061E+3	7.554418E+0	1.749000E-2	6.706840E+0	1.024600E+6
2.104061E+3	7.570275E+0	1.757000E-2	6.704550E+0	1.024600E+6
2.105061E+3	7.594480E+0	1.786000E-2	6.701070E+0	1.024600E+6
2.106061E+3	7.598318E+0	1.775000E-2	6.700520E+0	1.024600E+6
2.107062E+3	7.614400E+0	1.779000E-2	6.698220E+0	1.024600E+6
2.108062E+3	7.627095E+0	1.793000E-2	6.696410E+0	1.024600E+6
2.109062E+3	7.625269E+0	1.796000E-2	6.696670E+0	1.024600E+6
2.110062E+3	7.626112E+0	1.825000E-2	6.696550E+0	1.024600E+6
2.111062E+3	7.644618E+0	1.814000E-2	6.693920E+0	1.024600E+6
2.112061E+3	7.645817E+0	1.861000E-2	6.693750E+0	1.024600E+6
2.113061E+3	7.670001E+0	1.890000E-2	6.690330E+0	1.024600E+6
2.114062E+3	7.694954E+0	1.948000E-2	6.686820E+0	1.024600E+6
2.115061E+3	7.711593E+0	2.016000E-2	6.684490E+0	1.024600E+6
2.116062E+3	7.728939E+0	2.081000E-2	6.682070E+0	1.024600E+6
2.117061E+3	7.754718E+0	2.125000E-2	6.678490E+0	1.024600E+6
2.118061E+3	7.765345E+0	2.162000E-2	6.677020E+0	1.024600E+6
2.119061E+3	7.778463E+0	2.198000E-2	6.675210E+0	1.024600E+6
2.120062E+3	7.785654E+0	2.221000E-2	6.674220E+0	1.024600E+6
2.121061E+3	7.789435E+0	2.263000E-2	6.673700E+0	1.024600E+6
2.122062E+3	7.796351E+0	2.287000E-2	6.672750E+0	1.024600E+6
2.123062E+3	7.800652E+0	2.277000E-2	6.672160E+0	1.024600E+6
2.124063E+3	7.804591E+0	2.295000E-2	6.671620E+0	1.024600E+6
2.125063E+3	7.804080E+0	2.314000E-2	6.671690E+0	1.024600E+6
2.126063E+3	7.809264E+0	2.329000E-2	6.670980E+0	1.024600E+6
2.127063E+3	7.812480E+0	2.329000E-2	6.670540E+0	1.024600E+6
2.128063E+3	7.815039E+0	2.320000E-2	6.670190E+0	1.024600E+6
2.129063E+3	7.810945E+0	2.315000E-2	6.670750E+0	1.024600E+6
2.130063E+3	7.814308E+0	2.334000E-2	6.670290E+0	1.024600E+6
2.131063E+3	7.812845E+0	2.340000E-2	6.670490E+0	1.024600E+6
2.132063E+3	7.813430E+0	2.347000E-2	6.670410E+0	1.024600E+6
2.133062E+3	7.816356E+0	2.322000E-2	6.670010E+0	1.024600E+6
2.134062E+3	7.818625E+0	2.330000E-2	6.669700E+0	1.024600E+6
2.135062E+3	7.819357E+0	2.353000E-2	6.669600E+0	1.024600E+6
2.136063E+3	7.812187E+0	2.348000E-2	6.670580E+0	1.024600E+6
2.137062E+3	7.814015E+0	2.316000E-2	6.670330E+0	1.024600E+6
2.138062E+3	7.814235E+0	2.350000E-2	6.670300E+0	1.024600E+6
2.139062E+3	7.821407E+0	2.406000E-2	6.669320E+0	1.024600E+6
2.140062E+3	7.836447E+0	2.475000E-2	6.667270E+0	1.024600E+6
2.141062E+3	7.848808E+0	2.529000E-2	6.665590E+0	1.024600E+6
2.142062E+3	7.865266E+0	2.554000E-2	6.663360E+0	1.024600E+6
2.143062E+3	7.871480E+0	2.573000E-2	6.662520E+0	1.024600E+6
2.144062E+3	7.880298E+0	2.594000E-2	6.661330E+0	1.024600E+6
2.145063E+3	7.895601E+0	2.630000E-2	6.659270E+0	1.024600E+6
2.146063E+3	7.910804E+0	2.655000E-2	6.657230E+0	1.024600E+6
2.147063E+3	7.923586E+0	2.659000E-2	6.655520E+0	1.024600E+6
2.148063E+3	7.937753E+0	2.669000E-2	6.653630E+0	1.024600E+6
2.149063E+3	7.946318E+0	2.675000E-2	6.652490E+0	1.024600E+6
2.150063E+3	7.971805E+0	2.682000E-2	6.649110E+0	1.024600E+6
2.151063E+3	7.989453E+0	2.700000E-2	6.646780E+0	1.024600E+6
2.152063E+3	8.016544E+0	2.702000E-2	6.643220E+0	1.024600E+6
2.153063E+3	8.039646E+0	2.717000E-2	6.640200E+0	1.024600E+6
2.154063E+3	8.063629E+0	2.704000E-2	6.637080E+0	1.024600E+6
2.155063E+3	8.085486E+0	2.707000E-2	6.634250E+0	1.024600E+6
2.156062E+3	8.102857E+0	2.721000E-2	6.632010E+0	1.024600E+6
2.157063E+3	8.111409E+0	2.710000E-2	6.630910E+0	1.024600E+6
2.158063E+3	8.131450E+0	2.698000E-2	6.628340E+0	1.024600E+6
2.159063E+3	8.158876E+0	2.717000E-2	6.624840E+0	1.024600E+6
2.160063E+3	8.186456E+0	2.716000E-2	6.621340E+0	1.024600E+6
2.161063E+3	8.214986E+0	2.686000E-2	6.617740E+0	1.024600E+6
2.162062E+3	8.251602E+0	2.705000E-2	6.613150E+0	1.024600E+6
2.163063E+3	8.300605E+0	2.700000E-2	6.607060E+0	1.024600E+6
2.164063E+3	8.346990E+0	2.705000E-2	6.601350E+0	1.024600E+6
2.165063E+3	8.402712E+0	2.688000E-2	6.594560E+0	1.024600E+6
2.166063E+3	8.433751E+0	2.708000E-2	6.590810E+0	1.024600E+6
2.167063E+3	8.461725E+0	2.722000E-2	6.587450E+0	1.024600E+6
2.168063E+3	8.495479E+0	2.715000E-2	6.583420E+0	1.024600E+6
2.169064E+3	8.519317E+0	2.713000E-2	6.580590E+0	1.024600E+6
2.170063E+3	8.538094E+0	2.713000E-2	6.578370E+0	1.024600E+6
2.171064E+3	8.555069E+0	2.698000E-2	6.576370E+0	1.024600E+6
2.172065E+3	8.576538E+0	2.716000E-2	6.573850E+0	1.024600E+6
2.173065E+3	8.615011E+0	2.714000E-2	6.569360E+0	1.024600E+6
2.174065E+3	8.664961E+0	2.708000E-2	6.563580E+0	1.024600E+6
2.175066E+3	8.727594E+0	2.699000E-2	6.556410E+0	1.024600E+6
2.176066E+3	8.774463E+0	2.702000E-2	6.551100E+0	1.024600E+6
2.177066E+3	8.824972E+0	2.717000E-2	6.545430E+0	1.024600E+6
2.178065E+3	8.873164E+0	2.727000E-2	6.540070E+0	1.024600E+6
2.179065E+3	8.908685E+0	2.707000E-2	6.536150E+0	1.024600E+6
2.180065E+3	8.943435E+0	2.709000E-2	6.532340E+0	1.024600E+6
2.181065E+3	8.975372E+0	2.724000E-2	6.528860E+0	1.024600E+6
2.182065E+3	8.993258E+0	2.698000E-2	6.526920E+0	1.024600E+6
2.183065E+3	9.014817E+0	2.731000E-2	6.524590E+0	1.024600E+6
2.184065E+3	9.029392E+0	2.721000E-2	6.523020E+0	1.024600E+6
2.185065E+3	9.030415E+0	2.702000E-2	6.522910E+0	1.024600E+6
2.186065E+3	9.006850E+0	2.702000E-2	6.525450E+0	1.024600E+6
2.187066E+3	8.974267E+0	2.708000E-2	6.528980E+0	1.024600E+6
2.188066E+3	8.936577E+0	2.706000E-2	6.533090E+0	1.024600E+6
2.189066E+3	8.889627E+0	2.704000E-2	6.538250E+0	1.024600E+6
2.190066E+3	8.831689E+0	2.707000E-2	6.544680E+0	1.024600E+6
2.191066E+3	8.767021E+0	2.728000E-2	6.551940E+0	1.024600E+6
2.192066E+3	8.708471E+0	2.713000E-2	6.558590E+0	1.024600E+6
2.193066E+3	8.654292E+0	2.724000E-2	6.564810E+0	1.024600E+6
2.194066E+3	8.610455E+0	2.724000E-2	6.569890E+0	1.024600E+6
2.195066E+3	8.563663E+0	2.726000E-2	6.575360E+0	1.024600E+6
2.196066E+3	8.530304E+0	2.734000E-2	6.579290E+0	1.024600E+6
2.197066E+3	8.488257E+0	2.717000E-2	6.584280E+0	1.024600E+6
2.198066E+3	8.447053E+0	2.705000E-2	6.589210E+0	1.024600E+6
2.199066E+3	8.413864E+0	2.700000E-2	6.593210E+0	1.024600E+6
2.200066E+3	8.371288E+0	2.711000E-2	6.598380E+0	1.024600E+6
2.201066E+3	8.343401E+0	2.738000E-2	6.601790E+0	1.024600E+6
2.202065E+3	8.312911E+0	2.711000E-2	6.605540E+0	1.024600E+6
2.203065E+3	8.287684E+0	2.708000E-2	6.608660E+0	1.024600E+6
2.204065E+3	8.265072E+0	2.732000E-2	6.611470E+0	1.024600E+6
2.205065E+3	8.244162E+0	2.720000E-2	6.614080E+0	1.024600E+6
2.206065E+3	8.235774E+0	2.713000E-2	6.615130E+0	1.024600E+6
2.207065E+3	8.223737E+0	2.725000E-2	6.616640E+0	1.024600E+6
2.208065E+3	8.214827E+0	2.717000E-2	6.617760E+0	1.024600E+6
2.209065E+3	8.207997E+0	2.718000E-2	6.618620E+0	1.024600E+6
2.210065E+3	8.193732E+0	2.719000E-2	6.620420E+0	1.024600E+6
2.211066E+3	8.191595E+0	2.698000E-2	6.620690E+0	1.024600E+6
2.212065E+3	8.188037E+0	2.690000E-2	6.621140E+0	1.024600E+6
2.213065E+3	8.181007E+0	2.703000E-2	6.622030E+0	1.024600E+6
2.214065E+3	8.164773E+0	2.715000E-2	6.624090E+0	1.024600E+6
2.215065E+3	8.137158E+0	2.722000E-2	6.627610E+0	1.024600E+6
2.216065E+3	8.104177E+0	2.708000E-2	6.631840E+0	1.024600E+6
2.217066E+3	8.078757E+0	2.694000E-2	6.635120E+0	1.024600E+6
2.218066E+3	8.047397E+0	2.708000E-2	6.639190E+0	1.024600E+6
2.219065E+3	8.022577E+0	2.706000E-2	6.642430E+0	1.024600E+6
2.220066E+3	8.004045E+0	2.705000E-2	6.644860E+0	1.024600E+6
2.221066E+3	7.969462E+0	2.668000E-2	6.649420E+0	1.024600E+6
2.222066E+3	7.943085E+0	2.658000E-2	6.652920E+0	1.024600E+6
2.223066E+3	7.918274E+0	2.633000E-2	6.656230E+0	1.024600E+6
2.224066E+3	7.899546E+0	2.594000E-2	6.658740E+0	1.024600E+6
2.225066E+3	7.866745E+0	2.503000E-2	6.663160E+0	1.024600E+6
2.226066E+3	7.833582E+0	2.349000E-2	6.667660E+0	1.024600E+6
2.227066E+3	7.793219E+0	2.186000E-2	6.673180E+0	1.024600E+6
2.228066E+3	7.763174E+0	2.082000E-2	6.677320E+0	1.024600E+6
2.229066E+3	7.731453E+0	1.946000E-2	6.681720E+0	1.024600E+6
2.230066E+3	7.695952E+0	1.874000E-2	6.686680E+0	1.024600E+6
2.231066E+3	7.666812E+0	1.840000E-2	6.690780E+0	1.024600E+6
2.232066E+3	7.629695E+0	1.809000E-2	6.696040E+0	1.024600E+6
2.233066E+3	7.598318E+0	1.756000E-2	6.700520E+0	1.024600E+6
2.234065E+3	7.574995E+0	1.744000E-2	6.703870E+0	1.024600E+6
2.235066E+3	7.549374E+0	1.706000E-2	6.707570E+0	1.024600E+6
2.236067E+3	7.518613E+0	1.717000E-2	6.712040E+0	1.024600E+6
2.237066E+3	7.494469E+0	1.718000E-2	6.715570E+0	1.024600E+6
2.238067E+3	7.466926E+0	1.730000E-2	6.719620E+0	1.024600E+6
2.239067E+3	7.450279E+0	1.717000E-2	6.722080E+0	1.024600E+6
2.240067E+3	7.422067E+0	1.732000E-2	6.726270E+0	1.024600E+6
2.241068E+3	7.398036E+0	1.699000E-2	6.729860E+0	1.024600E+6
2.242068E+3	7.377057E+0	1.719000E-2	6.733010E+0	1.024600E+6
2.243068E+3	7.360412E+0	1.713000E-2	6.735520E+0	1.024600E+6
2.244068E+3	7.337174E+0	1.710000E-2	6.739040E+0	1.024600E+6
2.245067E+3	7.310588E+0	1.711000E-2	6.743090E+0	1.024600E+6
2.246068E+3	7.288262E+0	1.722000E-2	6.746510E+0	1.024600E+6
2.247067E+3	7.274350E+0	1.703000E-2	6.748650E+0	1.024600E+6
2.248068E+3	7.261453E+0	1.711000E-2	6.750640E+0	1.024600E+6
2.249067E+3	7.252596E+0	1.711000E-2	6.752010E+0	1.024600E+6
2.250067E+3	7.244982E+0	1.703000E-2	6.753190E+0	1.024600E+6
2.251067E+3	7.243564E+0	1.717000E-2	6.753410E+0	1.024600E+6
2.252067E+3	7.232943E+0	1.700000E-2	6.755060E+0	1.024600E+6
2.253067E+3	7.215748E+0	1.711000E-2	6.757740E+0	1.024600E+6
2.254067E+3	7.192757E+0	1.712000E-2	6.761340E+0	1.024600E+6
2.255067E+3	7.162165E+0	1.710000E-2	6.766160E+0	1.024600E+6
2.256067E+3	7.136250E+0	1.725000E-2	6.770270E+0	1.024600E+6
2.257068E+3	7.121691E+0	1.728000E-2	6.772590E+0	1.024600E+6
2.258067E+3	7.104248E+0	1.711000E-2	6.775380E+0	1.024600E+6
2.259067E+3	7.093406E+0	1.709000E-2	6.777120E+0	1.024600E+6
2.260067E+3	7.074777E+0	1.706000E-2	6.780120E+0	1.024600E+6
2.261067E+3	7.035921E+0	1.708000E-2	6.786420E+0	1.024600E+6
2.262068E+3	6.990856E+0	1.701000E-2	6.793800E+0	1.024600E+6
2.263067E+3	6.944588E+0	1.695000E-2	6.801460E+0	1.024600E+6
2.264067E+3	6.884063E+0	1.714000E-2	6.811610E+0	1.024600E+6
2.265067E+3	6.836158E+0	1.689000E-2	6.819750E+0	1.024600E+6
2.266067E+3	6.800217E+0	1.694000E-2	6.825920E+0	1.024600E+6
2.267067E+3	6.771206E+0	1.698000E-2	6.830940E+0	1.024600E+6
2.268067E+3	6.750529E+0	1.683000E-2	6.834540E+0	1.024600E+6
2.269067E+3	6.732637E+0	1.699000E-2	6.837670E+0	1.024600E+6
2.270067E+3	6.721075E+0	1.700000E-2	6.839700E+0	1.024600E+6
2.271067E+3	6.715449E+0	1.700000E-2	6.840690E+0	1.024600E+6
2.272067E+3	6.710908E+0	1.688000E-2	6.841490E+0	1.024600E+6
2.273067E+3	6.704673E+0	1.698000E-2	6.842590E+0	1.024600E+6
2.274067E+3	6.702464E+0	1.697000E-2	6.842980E+0	1.024600E+6
2.275067E+3	6.697203E+0	1.718000E-2	6.843910E+0	1.024600E+6
2.276067E+3	6.696186E+0	1.682000E-2	6.844090E+0	1.024600E+6
2.277066E+3	6.698221E+0	1.677000E-2	6.843730E+0	1.024600E+6
2.278067E+3	6.695846E+0	1.694000E-2	6.844150E+0	1.024600E+6
2.279066E+3	6.695168E+0	1.682000E-2	6.844270E+0	1.024600E+6
2.280067E+3	6.692626E+0	1.707000E-2	6.844720E+0	1.024600E+6
2.281067E+3	6.692909E+0	1.676000E-2	6.844670E+0	1.024600E+6
2.282066E+3	6.692852E+0	1.676000E-2	6.844680E+0	1.024600E+6
2.283067E+3	6.687886E+0	1.669000E-2	6.845560E+0	1.024600E+6
2.284067E+3	6.677014E+0	1.682000E-2	6.847490E+0	1.024600E+6
2.285067E+3	6.644800E+0	1.681000E-2	6.853240E+0	1.024600E+6
2.286066E+3	6.603999E+0	1.686000E-2	6.860590E+0	1.024600E+6
2.287067E+3	6.557660E+0	1.695000E-2	6.869030E+0	1.024600E+6
2.288067E+3	6.515371E+0	1.680000E-2	6.876820E+0	1.024600E+6
2.289066E+3	6.486162E+0	1.703000E-2	6.882250E+0	1.024600E+6
2.290066E+3	6.473802E+0	1.694000E-2	6.884560E+0	1.024600E+6
2.291066E+3	6.454884E+0	1.694000E-2	6.888110E+0	1.024600E+6
2.292066E+3	6.446282E+0	1.697000E-2	6.889730E+0	1.024600E+6
2.293066E+3	6.436852E+0	1.692000E-2	6.891510E+0	1.024600E+6
2.294067E+3	6.433203E+0	1.690000E-2	6.892200E+0	1.024600E+6
2.295066E+3	6.431459E+0	1.685000E-2	6.892530E+0	1.024600E+6
2.296066E+3	6.429610E+0	1.691000E-2	6.892880E+0	1.024600E+6
2.297066E+3	6.420590E+0	1.694000E-2	6.894590E+0	1.024600E+6
2.298066E+3	6.422118E+0	1.684000E-2	6.894300E+0	1.024600E+6
2.299066E+3	6.426390E+0	1.702000E-2	6.893490E+0	1.024600E+6
2.300066E+3	6.408280E+0	1.686000E-2	6.896930E+0	1.024600E+6
2.301067E+3	6.386547E+0	1.680000E-2	6.901080E+0	1.024600E+6
2.302066E+3	6.360836E+0	1.696000E-2	6.906020E+0	1.024600E+6
2.303066E+3	6.291753E+0	1.697000E-2	6.919460E+0	1.024600E+6
2.304066E+3	6.216469E+0	1.689000E-2	6.934390E+0	1.024600E+6
2.305066E+3	6.124958E+0	1.696000E-2	6.952950E+0	1.024600E+6
2.306066E+3	6.006993E+0	1.682000E-2	6.977570E+0	1.024600E+6
2.307066E+3	5.912552E+0	1.694000E-2	6.997870E+0	1.024600E+6
2.308066E+3	5.835713E+0	1.683000E-2	7.014790E+0	1.024600E+6
2.309065E+3	5.781779E+0	1.686000E-2	7.026890E+0	1.024600E+6
2.310066E+3	5.747101E+0	1.696000E-2	7.034770E+0	1.024600E+6
2.311066E+3	5.714720E+0	1.715000E-2	7.042200E+0	1.024600E+6
2.312066E+3	5.686167E+0	1.694000E-2	7.048810E+0	1.024600E+6
2.313066E+3	5.672472E+0	1.712000E-2	7.052000E+0	1.024600E+6
2.314066E+3	5.665710E+0	1.696000E-2	7.053580E+0	1.024600E+6
2.315066E+3	5.662633E+0	1.720000E-2	7.054300E+0	1.024600E+6
2.316066E+3	5.657766E+0	1.714000E-2	7.055440E+0	1.024600E+6
2.317066E+3	5.653418E+0	1.706000E-2	7.056460E+0	1.024600E+6
2.318067E+3	5.653972E+0	1.722000E-2	7.056330E+0	1.024600E+6
2.319066E+3	5.652694E+0	1.715000E-2	7.056630E+0	1.024600E+6
2.320067E+3	5.652651E+0	1.720000E-2	7.056640E+0	1.024600E+6
2.321067E+3	5.654952E+0	1.715000E-2	7.056100E+0	1.024600E+6
2.322067E+3	5.652566E+0	1.695000E-2	7.056660E+0	1.024600E+6
2.323066E+3	5.650565E+0	1.709000E-2	7.057130E+0	1.024600E+6
2.324067E+3	5.651714E+0	1.725000E-2	7.056860E+0	1.024600E+6
2.325067E+3	5.634088E+0	1.703000E-2	7.061010E+0	1.024600E+6
2.326066E+3	5.609944E+0	1.679000E-2	7.066730E+0	1.024600E+6
2.327066E+3	5.593581E+0	1.698000E-2	7.070630E+0	1.024600E+6
2.328066E+3	5.568438E+0	1.699000E-2	7.076660E+0	1.024600E+6
2.329066E+3	5.548640E+0	1.703000E-2	7.081440E+0	1.024600E+6
2.330066E+3	5.542451E+0	1.720000E-2	7.082940E+0	1.024600E+6
2.331066E+3	5.539485E+0	1.724000E-2	7.083660E+0	1.024600E+6
2.332066E+3	5.523339E+0	1.722000E-2	7.087590E+0	1.024600E+6
2.333066E+3	5.508292E+0	1.709000E-2	7.091270E+0	1.024600E+6
2.334067E+3	5.503848E+0	1.692000E-2	7.092360E+0	1.024600E+6
2.335066E+3	5.500102E+0	1.698000E-2	7.093280E+0	1.024600E+6
2.336066E+3	5.478402E+0	1.682000E-2	7.098630E+0	1.024600E+6
2.337066E+3	5.442017E+0	1.698000E-2	7.107680E+0	1.024600E+6
2.338066E+3	5.415616E+0	1.710000E-2	7.114310E+0	1.024600E+6
2.339066E+3	5.390608E+0	1.689000E-2	7.120640E+0	1.024600E+6
2.340066E+3	5.366456E+0	1.699000E-2	7.126800E+0	1.024600E+6
2.341066E+3	5.350364E+0	1.710000E-2	7.130930E+0	1.024600E+6
2.342066E+3	5.348693E+0	1.716000E-2	7.131360E+0	1.024600E+6
2.343066E+3	5.343492E+0	2.355000E-2	7.132700E+0	1.024600E+6
2.344066E+3	5.342328E+0	1.565000E-2	7.133000E+0	1.024600E+6
2.345066E+3	5.342328E+0	1.770000E-2	7.133000E+0	1.024600E+6
2.346066E+3	5.341708E+0	1.727000E-2	7.133160E+0	1.024600E+6
2.347066E+3	5.347683E+0	1.707000E-2	7.131620E+0	1.024600E+6
2.348066E+3	5.345897E+0	1.713000E-2	7.132080E+0	1.024600E+6
2.349066E+3	5.347800E+0	1.714000E-2	7.131590E+0	1.024600E+6
2.350066E+3	5.346984E+0	1.697000E-2	7.131800E+0	1.024600E+6
2.351066E+3	5.349392E+0	1.719000E-2	7.131180E+0	1.024600E+6
2.352066E+3	5.349897E+0	1.732000E-2	7.131050E+0	1.024600E+6
2.353066E+3	5.349315E+0	1.711000E-2	7.131200E+0	1.024600E+6
2.354065E+3	5.351608E+0	1.717000E-2	7.130610E+0	1.024600E+6
2.355065E+3	5.353825E+0	1.699000E-2	7.130040E+0	1.024600E+6
2.356066E+3	5.356043E+0	1.702000E-2	7.129470E+0	1.024600E+6
2.357065E+3	5.370912E+0	1.711000E-2	7.125660E+0	1.024600E+6
2.358066E+3	5.376785E+0	1.703000E-2	7.124160E+0	1.024600E+6
2.359066E+3	5.395255E+0	1.695000E-2	7.119460E+0	1.024600E+6
2.360066E+3	5.415378E+0	1.723000E-2	7.114370E+0	1.024600E+6
2.361066E+3	5.432356E+0	1.702000E-2	7.110100E+0	1.024600E+6
2.362066E+3	5.447419E+0	1.709000E-2	7.106330E+0	1.024600E+6
2.363065E+3	5.463880E+0	1.699000E-2	7.102230E+0	1.024600E+6
2.364066E+3	5.484553E+0	1.706000E-2	7.097110E+0	1.024600E+6
2.365065E+3	5.500631E+0	1.706000E-2	7.093150E+0	1.024600E+6
2.366065E+3	5.522930E+0	1.691000E-2	7.087690E+0	1.024600E+6
2.367065E+3	5.536727E+0	1.691000E-2	7.084330E+0	1.024600E+6
2.368065E+3	5.560057E+0	1.704000E-2	7.078680E+0	1.024600E+6
2.369066E+3	5.593749E+0	1.709000E-2	7.070590E+0	1.024600E+6
2.370065E+3	5.611164E+0	1.710000E-2	7.066440E+0	1.024600E+6
2.371065E+3	5.613395E+0	1.699000E-2	7.065910E+0	1.024600E+6
2.372065E+3	5.626937E+0	1.711000E-2	7.062700E+0	1.024600E+6
2.373065E+3	5.628374E+0	1.690000E-2	7.062360E+0	1.024600E+6
2.374065E+3	5.650096E+0	1.668000E-2	7.057240E+0	1.024600E+6
2.375065E+3	5.659174E+0	1.679000E-2	7.055110E+0	1.024600E+6
2.376065E+3	5.666993E+0	1.682000E-2	7.053280E+0	1.024600E+6
2.377065E+3	5.669047E+0	1.675000E-2	7.052800E+0	1.024600E+6
2.378065E+3	5.671701E+0	1.672000E-2	7.052180E+0	1.024600E+6
2.379065E+3	5.676245E+0	1.687000E-2	7.051120E+0	1.024600E+6
2.380065E+3	5.689136E+0	1.689000E-2	7.048120E+0	1.024600E+6
2.381065E+3	5.706704E+0	1.688000E-2	7.044050E+0	1.024600E+6
2.382065E+3	5.725320E+0	1.700000E-2	7.039760E+0	1.024600E+6
2.383065E+3	5.739272E+0	1.683000E-2	7.036560E+0	1.024600E+6
2.384065E+3	5.751526E+0	1.698000E-2	7.033760E+0	1.024600E+6
2.385065E+3	5.776167E+0	1.716000E-2	7.028160E+0	1.024600E+6
2.386065E+3	5.788996E+0	1.689000E-2	7.025260E+0	1.024600E+6
2.387065E+3	5.802051E+0	1.704000E-2	7.022320E+0	1.024600E+6
2.388065E+3	5.795606E+0	1.681000E-2	7.023770E+0	1.024600E+6
2.389065E+3	5.828399E+0	1.680000E-2	7.016420E+0	1.024600E+6
2.390065E+3	5.829654E+0	1.682000E-2	7.016140E+0	1.024600E+6
2.391065E+3	5.823426E+0	1.694000E-2	7.017530E+0	1.024600E+6
2.392065E+3	5.818372E+0	1.709000E-2	7.018660E+0	1.024600E+6
2.393065E+3	5.856076E+0	1.687000E-2	7.010270E+0	1.024600E+6
2.394065E+3	5.863267E+0	1.684000E-2	7.008680E+0	1.024600E+6
2.395066E+3	5.859511E+0	1.692000E-2	7.009510E+0	1.024600E+6
2.396066E+3	5.873423E+0	1.680000E-2	7.006440E+0	1.024600E+6
2.397065E+3	5.889853E+0	1.691000E-2	7.002830E+0	1.024600E+6
2.398066E+3	5.899949E+0	1.705000E-2	7.000620E+0	1.024600E+6
2.399066E+3	5.902649E+0	1.700000E-2	7.000030E+0	1.024600E+6
2.400066E+3	5.907138E+0	1.708000E-2	6.999050E+0	1.024600E+6
2.401066E+3	5.925338E+0	1.705000E-2	6.995090E+0	1.024600E+6
2.402065E+3	5.939327E+0	1.693000E-2	6.992060E+0	1.024600E+6
2.403065E+3	5.951236E+0	1.692000E-2	6.989490E+0	1.024600E+6
2.404066E+3	5.958251E+0	1.681000E-2	6.987980E+0	1.024600E+6
2.405065E+3	5.976855E+0	1.674000E-2	6.983990E+0	1.024600E+6
2.406066E+3	5.993207E+0	1.705000E-2	6.980500E+0	1.024600E+6
2.407066E+3	6.001435E+0	1.692000E-2	6.978750E+0	1.024600E+6
2.408065E+3	6.008125E+0	1.676000E-2	6.977330E+0	1.024600E+6
2.409065E+3	6.011286E+0	1.698000E-2	6.976660E+0	1.024600E+6
2.410065E+3	6.015489E+0	1.697000E-2	6.975770E+0	1.024600E+6
2.411065E+3	6.015820E+0	1.688000E-2	6.975700E+0	1.024600E+6
2.412065E+3	6.021259E+0	1.685000E-2	6.974550E+0	1.024600E+6
2.413065E+3	6.038861E+0	1.694000E-2	6.970840E+0	1.024600E+6
2.414065E+3	6.066216E+0	1.694000E-2	6.965110E+0	1.024600E+6
2.415065E+3	6.089098E+0	1.691000E-2	6.960350E+0	1.024600E+6
2.416065E+3	6.099094E+0	1.678000E-2	6.958280E+0	1.024600E+6
2.417065E+3	6.109942E+0	1.714000E-2	6.956040E+0	1.024600E+6
2.418066E+3	6.116106E+0	1.700000E-2	6.954770E+0	1.024600E+6
2.419066E+3	6.121405E+0	1.705000E-2	6.953680E+0	1.024600E+6
2.420066E+3	6.131100E+0	1.696000E-2	6.951690E+0	1.024600E+6
2.421066E+3	6.143315E+0	1.722000E-2	6.949190E+0	1.024600E+6
2.422066E+3	6.153558E+0	1.697000E-2	6.947100E+0	1.024600E+6
2.423066E+3	6.168459E+0	1.702000E-2	6.944070E+0	1.024600E+6
2.424066E+3	6.177587E+0	1.693000E-2	6.942220E+0	1.024600E+6
2.425066E+3	6.196257E+0	1.683000E-2	6.938450E+0	1.024600E+6
2.426066E+3	6.214423E+0	1.668000E-2	6.934800E+0	1.024600E+6
2.427066E+3	6.228620E+0	1.694000E-2	6.931960E+0	1.024600E+6
2.428066E+3	6.249613E+0	1.691000E-2	6.927780E+0	1.024600E+6
2.429066E+3	6.272752E+0	1.689000E-2	6.923200E+0	1.024600E+6
2.430065E+3	6.284426E+0	1.669000E-2	6.920900E+0	1.024600E+6
2.431066E+3	6.307831E+0	1.683000E-2	6.916310E+0	1.024600E+6
2.432066E+3	6.331383E+0	1.678000E-2	6.911720E+0	1.024600E+6
2.433066E+3	6.345771E+0	1.698000E-2	6.908930E+0	1.024600E+6
2.434066E+3	6.353322E+0	1.681000E-2	6.907470E+0	1.024600E+6
2.435066E+3	6.358087E+0	1.680000E-2	6.906550E+0	1.024600E+6
2.436067E+3	6.361717E+0	1.688000E-2	6.905850E+0	1.024600E+6
2.437067E+3	6.369352E+0	1.686000E-2	6.904380E+0	1.024600E+6
2.438067E+3	6.383258E+0	1.685000E-2	6.901710E+0	1.024600E+6
2.439067E+3	6.402245E+0	1.691000E-2	6.898080E+0	1.024600E+6
2.440066E+3	6.413852E+0	1.681000E-2	6.895870E+0	1.024600E+6
2.441067E+3	6.421644E+0	1.678000E-2	6.894390E+0	1.024600E+6
2.442067E+3	6.442041E+0	1.670000E-2	6.890530E+0	1.024600E+6
2.443066E+3	6.458926E+0	1.693000E-2	6.887350E+0	1.024600E+6
2.444067E+3	6.470972E+0	1.708000E-2	6.885090E+0	1.024600E+6
2.445068E+3	6.483965E+0	1.682000E-2	6.882660E+0	1.024600E+6
2.446068E+3	6.490290E+0	1.693000E-2	6.881480E+0	1.024600E+6
2.447067E+3	6.490827E+0	1.691000E-2	6.881380E+0	1.024600E+6
2.448068E+3	6.496089E+0	1.682000E-2	6.880400E+0	1.024600E+6
2.449067E+3	6.495498E+0	1.680000E-2	6.880510E+0	1.024600E+6
2.450068E+3	6.500712E+0	1.686000E-2	6.879540E+0	1.024600E+6
2.451067E+3	6.499314E+0	1.684000E-2	6.879800E+0	1.024600E+6
2.452068E+3	6.501250E+0	1.688000E-2	6.879440E+0	1.024600E+6
2.453067E+3	6.500443E+0	1.661000E-2	6.879590E+0	1.024600E+6
2.454068E+3	6.500873E+0	1.675000E-2	6.879510E+0	1.024600E+6
2.455067E+3	6.503725E+0	1.685000E-2	6.878980E+0	1.024600E+6
2.456067E+3	6.498453E+0	1.679000E-2	6.879960E+0	1.024600E+6
2.457067E+3	6.508897E+0	1.684000E-2	6.878020E+0	1.024600E+6
2.458067E+3	6.521639E+0	1.685000E-2	6.875660E+0	1.024600E+6
2.459067E+3	6.537463E+0	1.694000E-2	6.872740E+0	1.024600E+6
2.460067E+3	6.564052E+0	1.677000E-2	6.867860E+0	1.024600E+6
2.461067E+3	6.595944E+0	1.679000E-2	6.862050E+0	1.024600E+6
2.462067E+3	6.628929E+0	1.687000E-2	6.856090E+0	1.024600E+6
2.463067E+3	6.653458E+0	1.690000E-2	6.851690E+0	1.024600E+6
2.464067E+3	6.677914E+0	1.675000E-2	6.847330E+0	1.024600E+6
2.465067E+3	6.708413E+0	1.680000E-2	6.841930E+0	1.024600E+6
2.466067E+3	6.724034E+0	1.686000E-2	6.839180E+0	1.024600E+6
2.467067E+3	6.736860E+0	1.684000E-2	6.836930E+0	1.024600E+6
2.468067E+3	6.764130E+0	1.694000E-2	6.832170E+0	1.024600E+6
2.469066E+3	6.789502E+0	1.688000E-2	6.827770E+0	1.024600E+6
2.470067E+3	6.800623E+0	1.676000E-2	6.825850E+0	1.024600E+6
2.471066E+3	6.815673E+0	1.682000E-2	6.823260E+0	1.024600E+6
2.472067E+3	6.818294E+0	1.675000E-2	6.822810E+0	1.024600E+6
2.473067E+3	6.834871E+0	1.695000E-2	6.819970E+0	1.024600E+6
2.474067E+3	6.848874E+0	1.701000E-2	6.817580E+0	1.024600E+6
2.475067E+3	6.869114E+0	1.702000E-2	6.814140E+0	1.024600E+6
2.476067E+3	6.885721E+0	1.686000E-2	6.811330E+0	1.024600E+6
2.477067E+3	6.894258E+0	1.680000E-2	6.809890E+0	1.024600E+6
2.478066E+3	6.905251E+0	1.698000E-2	6.808040E+0	1.024600E+6
2.479067E+3	6.926846E+0	1.691000E-2	6.804420E+0	1.024600E+6
2.480066E+3	6.949396E+0	1.686000E-2	6.800660E+0	1.024600E+6
2.481067E+3	6.986849E+0	1.679000E-2	6.794460E+0	1.024600E+6
2.482066E+3	7.012229E+0	1.688000E-2	6.790290E+0	1.024600E+6
2.483066E+3	7.021396E+0	1.694000E-2	6.788790E+0	1.024600E+6
2.484067E+3	7.038316E+0	1.673000E-2	6.786030E+0	1.024600E+6
2.485066E+3	7.049141E+0	1.685000E-2	6.784270E+0	1.024600E+6
2.486066E+3	7.051975E+0	1.683000E-2	6.783810E+0	1.024600E+6
2.487067E+3	7.056106E+0	1.682000E-2	6.783140E+0	1.024600E+6
2.488067E+3	7.060303E+0	1.698000E-2	6.782460E+0	1.024600E+6
2.489066E+3	7.060859E+0	1.689000E-2	6.782370E+0	1.024600E+6
2.490066E+3	7.068833E+0	1.698000E-2	6.781080E+0	1.024600E+6
2.491066E+3	7.068153E+0	1.690000E-2	6.781190E+0	1.024600E+6
2.492066E+3	7.081536E+0	1.682000E-2	6.779030E+0	1.024600E+6
2.493066E+3	7.098824E+0	1.685000E-2	6.776250E+0	1.024600E+6
2.494066E+3	7.112805E+0	1.677000E-2	6.774010E+0	1.024600E+6
2.495066E+3	7.125452E+0	1.665000E-2	6.771990E+0	1.024600E+6
2.496066E+3	7.140087E+0	1.674000E-2	6.769660E+0	1.024600E+6
2.497066E+3	7.165202E+0	1.695000E-2	6.765680E+0	1.024600E+6
2.498066E+3	7.198939E+0	1.693000E-2	6.760370E+0	1.024600E+6
2.499066E+3	7.218502E+0	1.698000E-2	6.757310E+0	1.024600E+6
2.500066E+3	7.234165E+0	1.684000E-2	6.754870E+0	1.024600E+6
2.501067E+3	7.282991E+0	1.688000E-2	6.747320E+0	1.024600E+6
2.502067E+3	7.333948E+0	1.699000E-2	6.739530E+0	1.024600E+6
2.503067E+3	7.379450E+0	1.726000E-2	6.732650E+0	1.024600E+6
2.504067E+3	7.417304E+0	1.787000E-2	6.726980E+0	1.024600E+6
2.505067E+3	7.452982E+0	1.810000E-2	6.721680E+0	1.024600E+6
2.506067E+3	7.485882E+0	1.869000E-2	6.716830E+0	1.024600E+6
2.507067E+3	7.519711E+0	1.974000E-2	6.711880E+0	1.024600E+6
2.508067E+3	7.555593E+0	2.150000E-2	6.706670E+0	1.024600E+6
2.509066E+3	7.603765E+0	2.300000E-2	6.699740E+0	1.024600E+6
2.510067E+3	7.641165E+0	2.482000E-2	6.694410E+0	1.024600E+6
2.511067E+3	7.691391E+0	2.584000E-2	6.687320E+0	1.024600E+6
2.512068E+3	7.735190E+0	2.639000E-2	6.681200E+0	1.024600E+6
2.513068E+3	7.761077E+0	2.649000E-2	6.677610E+0	1.024600E+6
2.514068E+3	7.776794E+0	2.640000E-2	6.675440E+0	1.024600E+6
2.515068E+3	7.785944E+0	2.654000E-2	6.674180E+0	1.024600E+6
2.516067E+3	7.794020E+0	2.661000E-2	6.673070E+0	1.024600E+6
2.517068E+3	7.797736E+0	2.637000E-2	6.672560E+0	1.024600E+6
2.518068E+3	7.801745E+0	2.639000E-2	6.672010E+0	1.024600E+6
2.519068E+3	7.805102E+0	2.647000E-2	6.671550E+0	1.024600E+6
2.520067E+3	7.807584E+0	2.640000E-2	6.671210E+0	1.024600E+6
2.521068E+3	7.809776E+0	2.632000E-2	6.670910E+0	1.024600E+6
2.522068E+3	7.813577E+0	2.657000E-2	6.670390E+0	1.024600E+6
2.523068E+3	7.812626E+0	2.668000E-2	6.670520E+0	1.024600E+6
2.524067E+3	7.810141E+0	2.659000E-2	6.670860E+0	1.024600E+6
2.525067E+3	7.813504E+0	2.664000E-2	6.670400E+0	1.024600E+6
2.526067E+3	7.813723E+0	2.654000E-2	6.670370E+0	1.024600E+6
2.527068E+3	7.814600E+0	2.660000E-2	6.670250E+0	1.024600E+6
2.528067E+3	7.828298E+0	2.655000E-2	6.668380E+0	1.024600E+6
2.529067E+3	7.835859E+0	2.662000E-2	6.667350E+0	1.024600E+6
2.530067E+3	7.851166E+0	2.680000E-2	6.665270E+0	1.024600E+6
2.531067E+3	7.863048E+0	2.659000E-2	6.663660E+0	1.024600E+6
2.532068E+3	7.874739E+0	2.690000E-2	6.662080E+0	1.024600E+6
2.533067E+3	7.875257E+0	2.690000E-2	6.662010E+0	1.024600E+6
2.534067E+3	7.883043E+0	2.688000E-2	6.660960E+0	1.024600E+6
2.535067E+3	7.896122E+0	2.678000E-2	6.659200E+0	1.024600E+6
2.536067E+3	7.888909E+0	2.675000E-2	6.660170E+0	1.024600E+6
2.537067E+3	7.885418E+0	2.670000E-2	6.660640E+0	1.024600E+6
2.538067E+3	7.894113E+0	2.679000E-2	6.659470E+0	1.024600E+6
2.539067E+3	7.867558E+0	2.702000E-2	6.663050E+0	1.024600E+6
2.540067E+3	7.886829E+0	2.697000E-2	6.660450E+0	1.024600E+6
2.541067E+3	7.896122E+0	2.677000E-2	6.659200E+0	1.024600E+6
2.542067E+3	7.897312E+0	2.672000E-2	6.659040E+0	1.024600E+6
2.543067E+3	7.894336E+0	2.674000E-2	6.659440E+0	1.024600E+6
2.544067E+3	7.896866E+0	2.691000E-2	6.659100E+0	1.024600E+6
2.545067E+3	7.896047E+0	2.684000E-2	6.659210E+0	1.024600E+6
2.546067E+3	7.903644E+0	2.704000E-2	6.658190E+0	1.024600E+6
2.547067E+3	7.903494E+0	2.684000E-2	6.658210E+0	1.024600E+6
2.548067E+3	7.899620E+0	2.718000E-2	6.658730E+0	1.024600E+6
2.549067E+3	7.899695E+0	2.701000E-2	6.658720E+0	1.024600E+6
2.550067E+3	7.903196E+0	2.709000E-2	6.658250E+0	1.024600E+6
2.551067E+3	7.901036E+0	2.715000E-2	6.658540E+0	1.024600E+6
2.552066E+3	7.904911E+0	2.704000E-2	6.658020E+0	1.024600E+6
2.553067E+3	7.898057E+0	2.726000E-2	6.658940E+0	1.024600E+6
2.554067E+3	7.898727E+0	2.728000E-2	6.658850E+0	1.024600E+6
2.555067E+3	7.902526E+0	2.716000E-2	6.658340E+0	1.024600E+6
2.556067E+3	7.901632E+0	2.721000E-2	6.658460E+0	1.024600E+6
2.557067E+3	7.901483E+0	2.719000E-2	6.658480E+0	1.024600E+6
2.558067E+3	7.899248E+0	2.723000E-2	6.658780E+0	1.024600E+6
2.559067E+3	7.902898E+0	2.737000E-2	6.658290E+0	1.024600E+6
2.560067E+3	7.898876E+0	2.737000E-2	6.658830E+0	1.024600E+6
2.561067E+3	7.903420E+0	2.740000E-2	6.658220E+0	1.024600E+6
2.562067E+3	7.900142E+0	2.727000E-2	6.658660E+0	1.024600E+6
2.563067E+3	7.903196E+0	2.712000E-2	6.658250E+0	1.024600E+6
2.564066E+3	7.903271E+0	2.717000E-2	6.658240E+0	1.024600E+6
2.565066E+3	7.880149E+0	2.730000E-2	6.661350E+0	1.024600E+6
2.566067E+3	7.913492E+0	2.726000E-2	6.656870E+0	1.024600E+6
2.567067E+3	7.925906E+0	2.739000E-2	6.655210E+0	1.024600E+6
2.568066E+3	7.933776E+0	2.760000E-2	6.654160E+0	1.024600E+6
2.569066E+3	7.942935E+0	2.739000E-2	6.652940E+0	1.024600E+6
2.570066E+3	7.963948E+0	2.738000E-2	6.650150E+0	1.024600E+6
2.571066E+3	8.001154E+0	2.745000E-2	6.645240E+0	1.024600E+6
2.572066E+3	8.055699E+0	2.717000E-2	6.638110E+0	1.024600E+6
2.573066E+3	8.121381E+0	2.741000E-2	6.629630E+0	1.024600E+6
2.574066E+3	8.196502E+0	2.739000E-2	6.620070E+0	1.024600E+6
2.575066E+3	8.277693E+0	2.744000E-2	6.609900E+0	1.024600E+6
2.576066E+3	8.369484E+0	2.739000E-2	6.598600E+0	1.024600E+6
2.577066E+3	8.481297E+0	2.726000E-2	6.585110E+0	1.024600E+6
2.578066E+3	8.581833E+0	2.724000E-2	6.573230E+0	1.024600E+6
2.579066E+3	8.698062E+0	2.715000E-2	6.559780E+0	1.024600E+6
2.580066E+3	8.804247E+0	2.727000E-2	6.547750E+0	1.024600E+6
2.581066E+3	8.900781E+0	2.725000E-2	6.537020E+0	1.024600E+6
2.582066E+3	8.970496E+0	2.734000E-2	6.529390E+0	1.024600E+6
2.583066E+3	9.043727E+0	2.723000E-2	6.521480E+0	1.024600E+6
2.584066E+3	9.094854E+0	2.725000E-2	6.516020E+0	1.024600E+6
2.585066E+3	9.120503E+0	2.738000E-2	6.513300E+0	1.024600E+6
2.586066E+3	9.143898E+0	2.744000E-2	6.510830E+0	1.024600E+6
2.587065E+3	9.157488E+0	2.731000E-2	6.509400E+0	1.024600E+6
2.588066E+3	9.170824E+0	2.718000E-2	6.508000E+0	1.024600E+6
2.589065E+3	9.178173E+0	2.725000E-2	6.507230E+0	1.024600E+6
2.590066E+3	9.190220E+0	2.722000E-2	6.505970E+0	1.024600E+6
2.591066E+3	9.199704E+0	2.734000E-2	6.504980E+0	1.024600E+6
2.592066E+3	9.204595E+0	2.728000E-2	6.504470E+0	1.024600E+6
2.593065E+3	9.209684E+0	2.741000E-2	6.503940E+0	1.024600E+6
2.594065E+3	9.201526E+0	2.750000E-2	6.504790E+0	1.024600E+6
2.595066E+3	9.193379E+0	2.731000E-2	6.505640E+0	1.024600E+6
2.596066E+3	9.178078E+0	2.742000E-2	6.507240E+0	1.024600E+6
2.597066E+3	9.152922E+0	2.730000E-2	6.509880E+0	1.024600E+6
2.598065E+3	9.126177E+0	2.719000E-2	6.512700E+0	1.024600E+6
2.599065E+3	9.101632E+0	2.726000E-2	6.515300E+0	1.024600E+6
2.600065E+3	9.082544E+0	2.740000E-2	6.517330E+0	1.024600E+6
2.601066E+3	9.059688E+0	2.722000E-2	6.519770E+0	1.024600E+6
2.602066E+3	9.033391E+0	2.733000E-2	6.522590E+0	1.024600E+6
2.603066E+3	9.013797E+0	2.724000E-2	6.524700E+0	1.024600E+6
2.604065E+3	8.982556E+0	2.723000E-2	6.528080E+0	1.024600E+6
2.605065E+3	8.958371E+0	2.732000E-2	6.530710E+0	1.024600E+6
2.606066E+3	8.949111E+0	2.721000E-2	6.531720E+0	1.024600E+6
2.607065E+3	8.931918E+0	2.702000E-2	6.533600E+0	1.024600E+6
2.608065E+3	8.918331E+0	2.726000E-2	6.535090E+0	1.024600E+6
2.609065E+3	8.905413E+0	2.732000E-2	6.536510E+0	1.024600E+6
2.610065E+3	8.898694E+0	2.729000E-2	6.537250E+0	1.024600E+6
2.611065E+3	8.882746E+0	2.727000E-2	6.539010E+0	1.024600E+6
2.612065E+3	8.878495E+0	2.731000E-2	6.539480E+0	1.024600E+6
2.613065E+3	8.873525E+0	2.739000E-2	6.540030E+0	1.024600E+6
2.614065E+3	8.868831E+0	2.708000E-2	6.540550E+0	1.024600E+6
2.615065E+3	8.827569E+0	2.725000E-2	6.545140E+0	1.024600E+6
2.616065E+3	8.833661E+0	2.744000E-2	6.544460E+0	1.024600E+6
2.617065E+3	8.824972E+0	2.724000E-2	6.545430E+0	1.024600E+6
2.618065E+3	8.789201E+0	2.724000E-2	6.549440E+0	1.024600E+6
2.619065E+3	8.763923E+0	2.735000E-2	6.552290E+0	1.024600E+6
2.620065E+3	8.799168E+0	2.722000E-2	6.548320E+0	1.024600E+6
2.621065E+3	8.764897E+0	2.710000E-2	6.552180E+0	1.024600E+6
2.622064E+3	8.786979E+0	2.720000E-2	6.549690E+0	1.024600E+6
2.623065E+3	8.791513E+0	2.747000E-2	6.549180E+0	1.024600E+6
2.624065E+3	8.767198E+0	2.748000E-2	6.551920E+0	1.024600E+6
2.625065E+3	8.766578E+0	2.744000E-2	6.551990E+0	1.024600E+6
2.626065E+3	8.751550E+0	2.720000E-2	6.553690E+0	1.024600E+6
2.627065E+3	8.735420E+0	2.725000E-2	6.555520E+0	1.024600E+6
2.628064E+3	8.718287E+0	2.726000E-2	6.557470E+0	1.024600E+6
2.629064E+3	8.710748E+0	2.720000E-2	6.558330E+0	1.024600E+6
2.630064E+3	8.701734E+0	2.731000E-2	6.559360E+0	1.024600E+6
2.631066E+3	8.694306E+0	2.719000E-2	6.560210E+0	1.024600E+6
2.632066E+3	8.685581E+0	2.731000E-2	6.561210E+0	1.024600E+6
2.633065E+3	8.670174E+0	2.718000E-2	6.562980E+0	1.024600E+6
2.634065E+3	8.649181E+0	2.731000E-2	6.565400E+0	1.024600E+6
2.635066E+3	8.635003E+0	2.705000E-2	6.567040E+0	1.024600E+6
2.636066E+3	8.619055E+0	2.716000E-2	6.568890E+0	1.024600E+6
2.637065E+3	8.612518E+0	2.737000E-2	6.569650E+0	1.024600E+6
2.638065E+3	8.589701E+0	2.724000E-2	6.572310E+0	1.024600E+6
2.639065E+3	8.573636E+0	2.737000E-2	6.574190E+0	1.024600E+6
2.640065E+3	8.548103E+0	2.720000E-2	6.577190E+0	1.024600E+6
2.641065E+3	8.538687E+0	2.719000E-2	6.578300E+0	1.024600E+6
2.642065E+3	8.521090E+0	2.741000E-2	6.580380E+0	1.024600E+6
2.643066E+3	8.512061E+0	2.749000E-2	6.581450E+0	1.024600E+6
2.644065E+3	8.515435E+0	2.737000E-2	6.581050E+0	1.024600E+6
2.645065E+3	8.488425E+0	2.729000E-2	6.584260E+0	1.024600E+6
2.646066E+3	8.480794E+0	2.739000E-2	6.585170E+0	1.024600E+6
2.647065E+3	8.467405E+0	2.726000E-2	6.586770E+0	1.024600E+6
2.648066E+3	8.467488E+0	2.734000E-2	6.586760E+0	1.024600E+6
2.649066E+3	8.471501E+0	2.729000E-2	6.586280E+0	1.024600E+6
2.650065E+3	8.458803E+0	2.726000E-2	6.587800E+0	1.024600E+6
2.651065E+3	8.461474E+0	2.718000E-2	6.587480E+0	1.024600E+6
2.652065E+3	8.459221E+0	2.730000E-2	6.587750E+0	1.024600E+6
2.653065E+3	8.456801E+0	2.711000E-2	6.588040E+0	1.024600E+6
2.654065E+3	8.453216E+0	2.725000E-2	6.588470E+0	1.024600E+6
2.655065E+3	8.454717E+0	2.705000E-2	6.588290E+0	1.024600E+6
2.656065E+3	8.443225E+0	2.731000E-2	6.589670E+0	1.024600E+6
2.657065E+3	8.429270E+0	2.719000E-2	6.591350E+0	1.024600E+6
2.658065E+3	8.416760E+0	2.733000E-2	6.592860E+0	1.024600E+6
2.659065E+3	8.398588E+0	2.736000E-2	6.595060E+0	1.024600E+6
2.660065E+3	8.397846E+0	2.737000E-2	6.595150E+0	1.024600E+6
2.661065E+3	8.385084E+0	2.726000E-2	6.596700E+0	1.024600E+6
2.662065E+3	8.379331E+0	2.746000E-2	6.597400E+0	1.024600E+6
2.663065E+3	8.378099E+0	2.730000E-2	6.597550E+0	1.024600E+6
2.664065E+3	8.363913E+0	2.712000E-2	6.599280E+0	1.024600E+6
2.665065E+3	8.342096E+0	2.729000E-2	6.601950E+0	1.024600E+6
2.666065E+3	8.335171E+0	2.723000E-2	6.602800E+0	1.024600E+6
2.667065E+3	8.321429E+0	2.718000E-2	6.604490E+0	1.024600E+6
2.668064E+3	8.309264E+0	2.735000E-2	6.605990E+0	1.024600E+6
2.669064E+3	8.302546E+0	2.717000E-2	6.606820E+0	1.024600E+6
2.670065E+3	8.289217E+0	2.724000E-2	6.608470E+0	1.024600E+6
2.671065E+3	8.281397E+0	2.710000E-2	6.609440E+0	1.024600E+6
2.672065E+3	8.274233E+0	2.714000E-2	6.610330E+0	1.024600E+6
2.673065E+3	8.263708E+0	2.733000E-2	6.611640E+0	1.024600E+6
2.674065E+3	8.246881E+0	2.711000E-2	6.613740E+0	1.024600E+6
2.675065E+3	8.220871E+0	2.732000E-2	6.617000E+0	1.024600E+6
2.676065E+3	8.201493E+0	2.724000E-2	6.619440E+0	1.024600E+6
2.677066E+3	8.178639E+0	2.724000E-2	6.622330E+0	1.024600E+6
2.678066E+3	8.160291E+0	2.729000E-2	6.624660E+0	1.024600E+6
2.679065E+3	8.148436E+0	2.729000E-2	6.626170E+0	1.024600E+6
2.680065E+3	8.131919E+0	2.726000E-2	6.628280E+0	1.024600E+6
2.681066E+3	8.113511E+0	2.718000E-2	6.630640E+0	1.024600E+6
2.682066E+3	8.092691E+0	2.714000E-2	6.633320E+0	1.024600E+6
2.683067E+3	8.072190E+0	2.703000E-2	6.635970E+0	1.024600E+6
2.684067E+3	8.043558E+0	2.705000E-2	6.639690E+0	1.024600E+6
2.685066E+3	8.020820E+0	2.714000E-2	6.642660E+0	1.024600E+6
2.686066E+3	7.999557E+0	2.711000E-2	6.645450E+0	1.024600E+6
2.687066E+3	7.983311E+0	2.745000E-2	6.647590E+0	1.024600E+6
2.688067E+3	7.962590E+0	2.724000E-2	6.650330E+0	1.024600E+6
2.689067E+3	7.951962E+0	2.705000E-2	6.651740E+0	1.024600E+6
2.690066E+3	7.945040E+0	2.703000E-2	6.652660E+0	1.024600E+6
2.691066E+3	7.933776E+0	2.720000E-2	6.654160E+0	1.024600E+6
2.692067E+3	7.922912E+0	2.712000E-2	6.655610E+0	1.024600E+6
2.693066E+3	7.920368E+0	2.719000E-2	6.655950E+0	1.024600E+6
2.694066E+3	7.909386E+0	2.716000E-2	6.657420E+0	1.024600E+6
2.695066E+3	7.910953E+0	2.713000E-2	6.657210E+0	1.024600E+6
2.696066E+3	7.907819E+0	2.708000E-2	6.657630E+0	1.024600E+6
2.697066E+3	7.901259E+0	2.724000E-2	6.658510E+0	1.024600E+6
2.698066E+3	7.900142E+0	2.717000E-2	6.658660E+0	1.024600E+6
2.699066E+3	7.902228E+0	2.713000E-2	6.658380E+0	1.024600E+6
2.700066E+3	7.902228E+0	2.726000E-2	6.658380E+0	1.024600E+6
2.701066E+3	7.902824E+0	2.722000E-2	6.658300E+0	1.024600E+6
2.702066E+3	7.897834E+0	2.722000E-2	6.658970E+0	1.024600E+6
2.703066E+3	7.900961E+0	2.722000E-2	6.658550E+0	1.024600E+6
2.704067E+3	7.896047E+0	2.732000E-2	6.659210E+0	1.024600E+6
2.705067E+3	7.894708E+0	2.719000E-2	6.659390E+0	1.024600E+6
2.706067E+3	7.884750E+0	2.720000E-2	6.660730E+0	1.024600E+6
2.707067E+3	7.860389E+0	2.712000E-2	6.664020E+0	1.024600E+6
2.708067E+3	7.831012E+0	2.713000E-2	6.668010E+0	1.024600E+6
2.709068E+3	7.802110E+0	2.706000E-2	6.671960E+0	1.024600E+6
2.710068E+3	7.771283E+0	2.684000E-2	6.676200E+0	1.024600E+6
2.711067E+3	7.744259E+0	2.678000E-2	6.679940E+0	1.024600E+6
2.712067E+3	7.720616E+0	2.660000E-2	6.683230E+0	1.024600E+6
2.713069E+3	7.705874E+0	2.616000E-2	6.685290E+0	1.024600E+6
2.714070E+3	7.688899E+0	2.580000E-2	6.687670E+0	1.024600E+6
2.715070E+3	7.679867E+0	2.572000E-2	6.688940E+0	1.024600E+6
2.716070E+3	7.666103E+0	2.518000E-2	6.690880E+0	1.024600E+6
2.717070E+3	7.661430E+0	2.509000E-2	6.691540E+0	1.024600E+6
2.718071E+3	7.657823E+0	2.490000E-2	6.692050E+0	1.024600E+6
2.719071E+3	7.662563E+0	2.514000E-2	6.691380E+0	1.024600E+6
2.720071E+3	7.671916E+0	2.536000E-2	6.690060E+0	1.024600E+6
2.721072E+3	7.682852E+0	2.563000E-2	6.688520E+0	1.024600E+6
2.722072E+3	7.687333E+0	2.596000E-2	6.687890E+0	1.024600E+6
2.723072E+3	7.685056E+0	2.570000E-2	6.688210E+0	1.024600E+6
2.724071E+3	7.672909E+0	2.528000E-2	6.689920E+0	1.024600E+6
2.725071E+3	7.663766E+0	2.492000E-2	6.691210E+0	1.024600E+6
2.726071E+3	7.647863E+0	2.409000E-2	6.693460E+0	1.024600E+6
2.727071E+3	7.629835E+0	2.311000E-2	6.696020E+0	1.024600E+6
2.728071E+3	7.602857E+0	2.201000E-2	6.699870E+0	1.024600E+6
2.729071E+3	7.572426E+0	2.105000E-2	6.704240E+0	1.024600E+6
2.730072E+3	7.549788E+0	2.043000E-2	6.707510E+0	1.024600E+6
2.731072E+3	7.533039E+0	1.993000E-2	6.709940E+0	1.024600E+6
2.732072E+3	7.521701E+0	1.973000E-2	6.711590E+0	1.024600E+6
2.733072E+3	7.513678E+0	1.957000E-2	6.712760E+0	1.024600E+6
2.734072E+3	7.508680E+0	1.942000E-2	6.713490E+0	1.024600E+6
2.735072E+3	7.503551E+0	1.876000E-2	6.714240E+0	1.024600E+6
2.736072E+3	7.494332E+0	1.880000E-2	6.715590E+0	1.024600E+6
2.737072E+3	7.490923E+0	1.872000E-2	6.716090E+0	1.024600E+6
2.738072E+3	7.481867E+0	1.865000E-2	6.717420E+0	1.024600E+6
2.739072E+3	7.476156E+0	1.855000E-2	6.718260E+0	1.024600E+6
2.740072E+3	7.471335E+0	1.851000E-2	6.718970E+0	1.024600E+6
2.741072E+3	7.473236E+0	1.848000E-2	6.718690E+0	1.024600E+6
2.742072E+3	7.473304E+0	1.842000E-2	6.718680E+0	1.024600E+6
2.743072E+3	7.468689E+0	1.837000E-2	6.719360E+0	1.024600E+6
2.744071E+3	7.467401E+0	1.832000E-2	6.719550E+0	1.024600E+6
2.745072E+3	7.466316E+0	1.832000E-2	6.719710E+0	1.024600E+6
2.746072E+3	7.460084E+0	1.836000E-2	6.720630E+0	1.024600E+6
2.747072E+3	7.451630E+0	1.805000E-2	6.721880E+0	1.024600E+6
2.748072E+3	7.438340E+0	1.801000E-2	6.723850E+0	1.024600E+6
2.749072E+3	7.428112E+0	1.767000E-2	6.725370E+0	1.024600E+6
2.750072E+3	7.406255E+0	1.735000E-2	6.728630E+0	1.024600E+6
2.751071E+3	7.383840E+0	1.725000E-2	6.731990E+0	1.024600E+6
2.752072E+3	7.367765E+0	1.725000E-2	6.734410E+0	1.024600E+6
2.753072E+3	7.346137E+0	1.708000E-2	6.737680E+0	1.024600E+6
2.754072E+3	7.336779E+0	1.722000E-2	6.739100E+0	1.024600E+6
2.755072E+3	7.329279E+0	1.688000E-2	6.740240E+0	1.024600E+6
2.756071E+3	7.308952E+0	1.704000E-2	6.743340E+0	1.024600E+6
2.757072E+3	7.275519E+0	1.708000E-2	6.748470E+0	1.024600E+6
2.758072E+3	7.225556E+0	1.695000E-2	6.756210E+0	1.024600E+6
2.759072E+3	7.143360E+0	1.721000E-2	6.769140E+0	1.024600E+6
2.760071E+3	7.046186E+0	1.714000E-2	6.784750E+0	1.024600E+6
2.761071E+3	6.941946E+0	1.715000E-2	6.801900E+0	1.024600E+6
2.762071E+3	6.820508E+0	1.695000E-2	6.822430E+0	1.024600E+6
2.763071E+3	6.690989E+0	1.702000E-2	6.845010E+0	1.024600E+6
2.764073E+3	6.581475E+0	1.694000E-2	6.864680E+0	1.024600E+6
2.765072E+3	6.493940E+0	1.698000E-2	6.880800E+0	1.024600E+6
2.766072E+3	6.416219E+0	1.703000E-2	6.895420E+0	1.024600E+6
2.767072E+3	6.339989E+0	1.698000E-2	6.910050E+0	1.024600E+6
2.768072E+3	6.255359E+0	1.692000E-2	6.926640E+0	1.024600E+6
2.769072E+3	6.188421E+0	1.701000E-2	6.940030E+0	1.024600E+6
2.770072E+3	6.139597E+0	1.702000E-2	6.949950E+0	1.024600E+6
2.771072E+3	6.090545E+0	1.695000E-2	6.960050E+0	1.024600E+6
2.772072E+3	6.038575E+0	1.686000E-2	6.970900E+0	1.024600E+6
2.773072E+3	5.999506E+0	1.688000E-2	6.979160E+0	1.024600E+6
2.774072E+3	5.958344E+0	1.705000E-2	6.987960E+0	1.024600E+6
2.775071E+3	5.911312E+0	1.709000E-2	6.998140E+0	1.024600E+6
2.776072E+3	5.863358E+0	1.708000E-2	7.008660E+0	1.024600E+6
2.777072E+3	5.829519E+0	1.710000E-2	7.016170E+0	1.024600E+6
2.778072E+3	5.797205E+0	1.691000E-2	7.023410E+0	1.024600E+6
2.779072E+3	5.769109E+0	1.700000E-2	7.029760E+0	1.024600E+6
2.780072E+3	5.753719E+0	1.687000E-2	7.033260E+0	1.024600E+6
2.781071E+3	5.745306E+0	1.694000E-2	7.035180E+0	1.024600E+6
2.782072E+3	5.738442E+0	1.699000E-2	7.036750E+0	1.024600E+6
2.783072E+3	5.735604E+0	1.689000E-2	7.037400E+0	1.024600E+6
2.784073E+3	5.733335E+0	1.699000E-2	7.037920E+0	1.024600E+6
2.785073E+3	5.732463E+0	1.689000E-2	7.038120E+0	1.024600E+6
2.786073E+3	5.730937E+0	1.689000E-2	7.038470E+0	1.024600E+6
2.787072E+3	5.732899E+0	1.689000E-2	7.038020E+0	1.024600E+6
2.788072E+3	5.733815E+0	1.707000E-2	7.037810E+0	1.024600E+6
2.789072E+3	5.731243E+0	1.705000E-2	7.038400E+0	1.024600E+6
2.790072E+3	5.711815E+0	1.703000E-2	7.042870E+0	1.024600E+6
2.791072E+3	5.683931E+0	1.688000E-2	7.049330E+0	1.024600E+6
2.792073E+3	5.650181E+0	1.688000E-2	7.057220E+0	1.024600E+6
2.793072E+3	5.601543E+0	1.696000E-2	7.068730E+0	1.024600E+6
2.794073E+3	5.564203E+0	1.693000E-2	7.077680E+0	1.024600E+6
2.795072E+3	5.546369E+0	1.720000E-2	7.081990E+0	1.024600E+6
2.796072E+3	5.537756E+0	1.708000E-2	7.084080E+0	1.024600E+6
2.797072E+3	5.532368E+0	1.715000E-2	7.085390E+0	1.024600E+6
2.798072E+3	5.525020E+0	1.711000E-2	7.087180E+0	1.024600E+6
2.799072E+3	5.520390E+0	1.720000E-2	7.088310E+0	1.024600E+6
2.800072E+3	5.521086E+0	1.712000E-2	7.088140E+0	1.024600E+6
2.801072E+3	5.518875E+0	1.716000E-2	7.088680E+0	1.024600E+6
2.802072E+3	5.520841E+0	1.713000E-2	7.088200E+0	1.024600E+6
2.803072E+3	5.520595E+0	1.703000E-2	7.088260E+0	1.024600E+6
2.804072E+3	5.522643E+0	1.694000E-2	7.087760E+0	1.024600E+6
2.805072E+3	5.524200E+0	1.708000E-2	7.087380E+0	1.024600E+6
2.806072E+3	5.521823E+0	1.718000E-2	7.087960E+0	1.024600E+6
2.807072E+3	5.525348E+0	1.652000E-2	7.087100E+0	1.024600E+6
2.808072E+3	5.525266E+0	1.744000E-2	7.087120E+0	1.024600E+6
2.809072E+3	5.521742E+0	1.675000E-2	7.087980E+0	1.024600E+6
2.810072E+3	5.525799E+0	1.717000E-2	7.086990E+0	1.024600E+6
2.811072E+3	5.525348E+0	1.716000E-2	7.087100E+0	1.024600E+6
2.812072E+3	5.525963E+0	1.723000E-2	7.086950E+0	1.024600E+6
2.813072E+3	5.531505E+0	1.722000E-2	7.085600E+0	1.024600E+6
2.814072E+3	5.529862E+0	1.723000E-2	7.086000E+0	1.024600E+6
2.815072E+3	5.536644E+0	1.704000E-2	7.084350E+0	1.024600E+6
2.816071E+3	5.557033E+0	1.716000E-2	7.079410E+0	1.024600E+6
2.817071E+3	5.612553E+0	1.718000E-2	7.066110E+0	1.024600E+6
2.818071E+3	5.670459E+0	1.707000E-2	7.052470E+0	1.024600E+6
2.819071E+3	5.717193E+0	1.701000E-2	7.041630E+0	1.024600E+6
2.820071E+3	5.752710E+0	1.714000E-2	7.033490E+0	1.024600E+6
2.821071E+3	5.773430E+0	1.721000E-2	7.028780E+0	1.024600E+6
2.822071E+3	5.781956E+0	1.715000E-2	7.026850E+0	1.024600E+6
2.823071E+3	5.789617E+0	1.722000E-2	7.025120E+0	1.024600E+6
2.824071E+3	5.796717E+0	1.709000E-2	7.023520E+0	1.024600E+6
2.825071E+3	5.798805E+0	1.720000E-2	7.023050E+0	1.024600E+6
2.826071E+3	5.799249E+0	1.720000E-2	7.022950E+0	1.024600E+6
2.827072E+3	5.817925E+0	1.718000E-2	7.018760E+0	1.024600E+6
2.828071E+3	5.831044E+0	1.710000E-2	7.015830E+0	1.024600E+6
2.829071E+3	5.840253E+0	1.706000E-2	7.013780E+0	1.024600E+6
2.830071E+3	5.847682E+0	1.709000E-2	7.012130E+0	1.024600E+6
2.831072E+3	5.867707E+0	1.696000E-2	7.007700E+0	1.024600E+6
2.832071E+3	5.914710E+0	1.692000E-2	6.997400E+0	1.024600E+6
2.833071E+3	5.951282E+0	1.682000E-2	6.989480E+0	1.024600E+6
2.834071E+3	5.991752E+0	1.709000E-2	6.980810E+0	1.024600E+6
2.835071E+3	6.019129E+0	1.686000E-2	6.975000E+0	1.024600E+6
2.836071E+3	6.059513E+0	1.709000E-2	6.966510E+0	1.024600E+6
2.837070E+3	6.095566E+0	1.683000E-2	6.959010E+0	1.024600E+6
2.838071E+3	6.119751E+0	1.706000E-2	6.954020E+0	1.024600E+6
2.839071E+3	6.146057E+0	1.703000E-2	6.948630E+0	1.024600E+6
2.840071E+3	6.171170E+0	1.699000E-2	6.943520E+0	1.024600E+6
2.841071E+3	6.172601E+0	1.696000E-2	6.943230E+0	1.024600E+6
2.842071E+3	6.175710E+0	1.722000E-2	6.942600E+0	1.024600E+6
2.843071E+3	6.179761E+0	1.702000E-2	6.941780E+0	1.024600E+6
2.844071E+3	6.180156E+0	1.695000E-2	6.941700E+0	1.024600E+6
2.845071E+3	6.182530E+0	1.712000E-2	6.941220E+0	1.024600E+6
2.846071E+3	6.182332E+0	1.721000E-2	6.941260E+0	1.024600E+6
2.847070E+3	6.181986E+0	1.677000E-2	6.941330E+0	1.024600E+6
2.848072E+3	6.184262E+0	1.692000E-2	6.940870E+0	1.024600E+6
2.849072E+3	6.185251E+0	1.699000E-2	6.940670E+0	1.024600E+6
2.850071E+3	6.184163E+0	1.701000E-2	6.940890E+0	1.024600E+6
2.851072E+3	6.201822E+0	1.700000E-2	6.937330E+0	1.024600E+6
2.852072E+3	6.216769E+0	1.699000E-2	6.934330E+0	1.024600E+6
2.853072E+3	6.225016E+0	1.715000E-2	6.932680E+0	1.024600E+6
2.854072E+3	6.245637E+0	1.703000E-2	6.928570E+0	1.024600E+6
2.855071E+3	6.265461E+0	1.709000E-2	6.924640E+0	1.024600E+6
2.856071E+3	6.295932E+0	1.721000E-2	6.918640E+0	1.024600E+6
2.857072E+3	6.314846E+0	1.709000E-2	6.914940E+0	1.024600E+6
2.858072E+3	6.335658E+0	1.717000E-2	6.910890E+0	1.024600E+6
2.859071E+3	6.360732E+0	1.709000E-2	6.906040E+0	1.024600E+6
2.860071E+3	6.387748E+0	1.719000E-2	6.900850E+0	1.024600E+6
2.861071E+3	6.417377E+0	1.727000E-2	6.895200E+0	1.024600E+6
2.862071E+3	6.442306E+0	1.697000E-2	6.890480E+0	1.024600E+6
2.863071E+3	6.459512E+0	1.712000E-2	6.887240E+0	1.024600E+6
2.864071E+3	6.486751E+0	1.726000E-2	6.882140E+0	1.024600E+6
2.865071E+3	6.508735E+0	1.713000E-2	6.878050E+0	1.024600E+6
2.866071E+3	6.525968E+0	1.726000E-2	6.874860E+0	1.024600E+6
2.867071E+3	6.537626E+0	1.728000E-2	6.872710E+0	1.024600E+6
2.868071E+3	6.543930E+0	1.724000E-2	6.871550E+0	1.024600E+6
2.869071E+3	6.550190E+0	1.744000E-2	6.870400E+0	1.024600E+6
2.870071E+3	6.554878E+0	1.736000E-2	6.869540E+0	1.024600E+6
2.871071E+3	6.560008E+0	1.737000E-2	6.868600E+0	1.024600E+6
2.872071E+3	6.559189E+0	1.730000E-2	6.868750E+0	1.024600E+6
2.873071E+3	6.573302E+0	1.731000E-2	6.866170E+0	1.024600E+6
2.874071E+3	6.563013E+0	1.737000E-2	6.868050E+0	1.024600E+6
2.875071E+3	6.560827E+0	1.761000E-2	6.868450E+0	1.024600E+6
2.876071E+3	6.562958E+0	1.749000E-2	6.868060E+0	1.024600E+6
2.877071E+3	6.566294E+0	1.737000E-2	6.867450E+0	1.024600E+6
2.878071E+3	6.567005E+0	1.741000E-2	6.867320E+0	1.024600E+6
2.879071E+3	6.565254E+0	1.742000E-2	6.867640E+0	1.024600E+6
2.880070E+3	6.565692E+0	1.725000E-2	6.867560E+0	1.024600E+6
2.881071E+3	6.583068E+0	1.738000E-2	6.864390E+0	1.024600E+6
2.882071E+3	6.609415E+0	1.735000E-2	6.859610E+0	1.024600E+6
2.883070E+3	6.620934E+0	1.747000E-2	6.857530E+0	1.024600E+6
2.884071E+3	6.652117E+0	1.737000E-2	6.851930E+0	1.024600E+6
2.885071E+3	6.671730E+0	1.743000E-2	6.848430E+0	1.024600E+6
2.886070E+3	6.683376E+0	1.752000E-2	6.846360E+0	1.024600E+6
2.887070E+3	6.700370E+0	1.738000E-2	6.843350E+0	1.024600E+6
2.888070E+3	6.721986E+0	1.749000E-2	6.839540E+0	1.024600E+6
2.889071E+3	6.750930E+0	1.738000E-2	6.834470E+0	1.024600E+6
2.890070E+3	6.774087E+0	1.731000E-2	6.830440E+0	1.024600E+6
2.891070E+3	6.798187E+0	1.742000E-2	6.826270E+0	1.024600E+6
2.892070E+3	6.823131E+0	1.745000E-2	6.821980E+0	1.024600E+6
2.893070E+3	6.849696E+0	1.760000E-2	6.817440E+0	1.024600E+6
2.894070E+3	6.866638E+0	1.767000E-2	6.814560E+0	1.024600E+6
2.895070E+3	6.882110E+0	1.750000E-2	6.811940E+0	1.024600E+6
2.896070E+3	6.893961E+0	1.738000E-2	6.809940E+0	1.024600E+6
2.897070E+3	6.900969E+0	1.747000E-2	6.808760E+0	1.024600E+6
2.898070E+3	6.918958E+0	1.748000E-2	6.805740E+0	1.024600E+6
2.899070E+3	6.935468E+0	1.752000E-2	6.802980E+0	1.024600E+6
2.900070E+3	6.953066E+0	1.766000E-2	6.800050E+0	1.024600E+6
2.901070E+3	6.962889E+0	1.747000E-2	6.798420E+0	1.024600E+6
2.902070E+3	6.968322E+0	1.755000E-2	6.797520E+0	1.024600E+6
2.903070E+3	6.979029E+0	1.738000E-2	6.795750E+0	1.024600E+6
2.904071E+3	6.981997E+0	1.725000E-2	6.795260E+0	1.024600E+6
2.905071E+3	6.985090E+0	1.732000E-2	6.794750E+0	1.024600E+6
2.906071E+3	6.991645E+0	1.731000E-2	6.793670E+0	1.024600E+6
2.907071E+3	7.005580E+0	1.754000E-2	6.791380E+0	1.024600E+6
2.908071E+3	7.019806E+0	1.735000E-2	6.789050E+0	1.024600E+6
2.909071E+3	7.032914E+0	1.728000E-2	6.786910E+0	1.024600E+6
2.910071E+3	7.040405E+0	1.724000E-2	6.785690E+0	1.024600E+6
2.911071E+3	7.046925E+0	1.739000E-2	6.784630E+0	1.024600E+6
2.912070E+3	7.054934E+0	1.734000E-2	6.783330E+0	1.024600E+6
2.913071E+3	7.057340E+0	1.722000E-2	6.782940E+0	1.024600E+6
2.914071E+3	7.064751E+0	1.735000E-2	6.781740E+0	1.024600E+6
2.915070E+3	7.079613E+0	1.752000E-2	6.779340E+0	1.024600E+6
2.916070E+3	7.080729E+0	1.744000E-2	6.779160E+0	1.024600E+6
2.917071E+3	7.078496E+0	1.749000E-2	6.779520E+0	1.024600E+6
2.918070E+3	7.074405E+0	1.742000E-2	6.780180E+0	1.024600E+6
2.919070E+3	7.073848E+0	1.753000E-2	6.780270E+0	1.024600E+6
2.920070E+3	7.070628E+0	1.743000E-2	6.780790E+0	1.024600E+6
2.921070E+3	7.083336E+0	1.738000E-2	6.778740E+0	1.024600E+6
2.922071E+3	7.104997E+0	1.755000E-2	6.775260E+0	1.024600E+6
2.923070E+3	7.125514E+0	1.734000E-2	6.771980E+0	1.024600E+6
2.924070E+3	7.146635E+0	1.742000E-2	6.768620E+0	1.024600E+6
2.925070E+3	7.165645E+0	1.759000E-2	6.765610E+0	1.024600E+6
2.926070E+3	7.179274E+0	1.735000E-2	6.763460E+0	1.024600E+6
2.927070E+3	7.188746E+0	1.734000E-2	6.761970E+0	1.024600E+6
2.928070E+3	7.198238E+0	1.756000E-2	6.760480E+0	1.024600E+6
2.929070E+3	7.205898E+0	1.746000E-2	6.759280E+0	1.024600E+6
2.930070E+3	7.214916E+0	1.770000E-2	6.757870E+0	1.024600E+6
2.931070E+3	7.229473E+0	1.791000E-2	6.755600E+0	1.024600E+6
2.932070E+3	7.248078E+0	1.794000E-2	6.752710E+0	1.024600E+6
2.933070E+3	7.259642E+0	1.798000E-2	6.750920E+0	1.024600E+6
2.934069E+3	7.272468E+0	1.805000E-2	6.748940E+0	1.024600E+6
2.935069E+3	7.281496E+0	1.821000E-2	6.747550E+0	1.024600E+6
2.936070E+3	7.290151E+0	1.830000E-2	6.746220E+0	1.024600E+6
2.937069E+3	7.307382E+0	1.862000E-2	6.743580E+0	1.024600E+6
2.938070E+3	7.313403E+0	1.910000E-2	6.742660E+0	1.024600E+6
2.939070E+3	7.346533E+0	1.947000E-2	6.737620E+0	1.024600E+6
2.940070E+3	7.370883E+0	1.986000E-2	6.733940E+0	1.024600E+6
2.941070E+3	7.358956E+0	1.989000E-2	6.735740E+0	1.024600E+6
2.942070E+3	7.358030E+0	2.028000E-2	6.735880E+0	1.024600E+6
2.943071E+3	7.373670E+0	2.044000E-2	6.733520E+0	1.024600E+6
2.944071E+3	7.347853E+0	2.050000E-2	6.737420E+0	1.024600E+6
2.945071E+3	7.361405E+0	2.096000E-2	6.735370E+0	1.024600E+6
2.946070E+3	7.374334E+0	2.081000E-2	6.733420E+0	1.024600E+6
2.947071E+3	7.385703E+0	2.072000E-2	6.731710E+0	1.024600E+6
2.948071E+3	7.379383E+0	2.076000E-2	6.732660E+0	1.024600E+6
2.949070E+3	7.383041E+0	2.078000E-2	6.732110E+0	1.024600E+6
2.950070E+3	7.390166E+0	2.098000E-2	6.731040E+0	1.024600E+6
2.951070E+3	7.386502E+0	2.094000E-2	6.731590E+0	1.024600E+6
2.952071E+3	7.384638E+0	2.097000E-2	6.731870E+0	1.024600E+6
2.953070E+3	7.383906E+0	2.097000E-2	6.731980E+0	1.024600E+6
2.954070E+3	7.386036E+0	2.116000E-2	6.731660E+0	1.024600E+6
2.955070E+3	7.393099E+0	2.087000E-2	6.730600E+0	1.024600E+6
2.956070E+3	7.385104E+0	2.096000E-2	6.731800E+0	1.024600E+6
2.957070E+3	7.384106E+0	2.101000E-2	6.731950E+0	1.024600E+6
2.958070E+3	7.383773E+0	2.101000E-2	6.732000E+0	1.024600E+6
2.959070E+3	7.385370E+0	2.091000E-2	6.731760E+0	1.024600E+6
2.960070E+3	7.391232E+0	2.101000E-2	6.730880E+0	1.024600E+6
2.961070E+3	7.401308E+0	2.158000E-2	6.729370E+0	1.024600E+6
2.962070E+3	7.408864E+0	2.206000E-2	6.728240E+0	1.024600E+6
2.963070E+3	7.423880E+0	2.258000E-2	6.726000E+0	1.024600E+6
2.964070E+3	7.437262E+0	2.274000E-2	6.724010E+0	1.024600E+6
2.965070E+3	7.438946E+0	2.313000E-2	6.723760E+0	1.024600E+6
2.966070E+3	7.447173E+0	2.343000E-2	6.722540E+0	1.024600E+6
2.967070E+3	7.453861E+0	2.347000E-2	6.721550E+0	1.024600E+6
2.968070E+3	7.459204E+0	2.357000E-2	6.720760E+0	1.024600E+6
2.969070E+3	7.459678E+0	2.338000E-2	6.720690E+0	1.024600E+6
2.970069E+3	7.464690E+0	2.378000E-2	6.719950E+0	1.024600E+6
2.971070E+3	7.465842E+0	2.365000E-2	6.719780E+0	1.024600E+6
2.972069E+3	7.466926E+0	2.371000E-2	6.719620E+0	1.024600E+6
2.973069E+3	7.462589E+0	2.388000E-2	6.720260E+0	1.024600E+6
2.974070E+3	7.467062E+0	2.393000E-2	6.719600E+0	1.024600E+6
2.975069E+3	7.472625E+0	2.385000E-2	6.718780E+0	1.024600E+6
2.976070E+3	7.471267E+0	2.392000E-2	6.718980E+0	1.024600E+6
2.977069E+3	7.468486E+0	2.382000E-2	6.719390E+0	1.024600E+6
2.978069E+3	7.471335E+0	2.411000E-2	6.718970E+0	1.024600E+6
2.979070E+3	7.480302E+0	2.459000E-2	6.717650E+0	1.024600E+6
2.980070E+3	7.501637E+0	2.506000E-2	6.714520E+0	1.024600E+6
2.981069E+3	7.517790E+0	2.543000E-2	6.712160E+0	1.024600E+6
2.982069E+3	7.523073E+0	2.541000E-2	6.711390E+0	1.024600E+6
2.983070E+3	7.521769E+0	2.552000E-2	6.711580E+0	1.024600E+6
2.984071E+3	7.532351E+0	2.591000E-2	6.710040E+0	1.024600E+6
2.985071E+3	7.537926E+0	2.576000E-2	6.709230E+0	1.024600E+6
2.986072E+3	7.542061E+0	2.585000E-2	6.708630E+0	1.024600E+6
2.987072E+3	7.545164E+0	2.579000E-2	6.708180E+0	1.024600E+6
2.988072E+3	7.545440E+0	2.590000E-2	6.708140E+0	1.024600E+6
2.989072E+3	7.546889E+0	2.612000E-2	6.707930E+0	1.024600E+6
2.990072E+3	7.550203E+0	2.583000E-2	6.707450E+0	1.024600E+6
2.991072E+3	7.550341E+0	2.596000E-2	6.707430E+0	1.024600E+6
2.992072E+3	7.553519E+0	2.597000E-2	6.706970E+0	1.024600E+6
2.993072E+3	7.548546E+0	2.608000E-2	6.707690E+0	1.024600E+6
2.994073E+3	7.555731E+0	2.608000E-2	6.706650E+0	1.024600E+6
2.995073E+3	7.554279E+0	2.617000E-2	6.706860E+0	1.024600E+6
2.996073E+3	7.574370E+0	2.632000E-2	6.703960E+0	1.024600E+6
2.997073E+3	7.583962E+0	2.663000E-2	6.702580E+0	1.024600E+6
2.998073E+3	7.586398E+0	2.648000E-2	6.702230E+0	1.024600E+6
2.999073E+3	7.604464E+0	2.657000E-2	6.699640E+0	1.024600E+6
3.000073E+3	7.610829E+0	2.661000E-2	6.698730E+0	1.024600E+6
3.001073E+3	7.615590E+0	2.665000E-2	6.698050E+0	1.024600E+6
3.002073E+3	7.617062E+0	2.677000E-2	6.697840E+0	1.024600E+6
3.003073E+3	7.629554E+0	2.689000E-2	6.696060E+0	1.024600E+6
3.004074E+3	7.654076E+0	2.669000E-2	6.692580E+0	1.024600E+6
3.005073E+3	7.660086E+0	2.685000E-2	6.691730E+0	1.024600E+6
3.006074E+3	7.675464E+0	2.692000E-2	6.689560E+0	1.024600E+6
3.007074E+3	7.684487E+0	2.674000E-2	6.688290E+0	1.024600E+6
3.008074E+3	7.692246E+0	2.686000E-2	6.687200E+0	1.024600E+6
3.009074E+3	7.702945E+0	2.713000E-2	6.685700E+0	1.024600E+6
3.010074E+3	7.705945E+0	2.671000E-2	6.685280E+0	1.024600E+6
3.011073E+3	7.710306E+0	2.677000E-2	6.684670E+0	1.024600E+6
3.012073E+3	7.718395E+0	2.666000E-2	6.683540E+0	1.024600E+6
3.013073E+3	7.717105E+0	2.686000E-2	6.683720E+0	1.024600E+6
3.014073E+3	7.716461E+0	2.706000E-2	6.683810E+0	1.024600E+6
3.015073E+3	7.716604E+0	2.695000E-2	6.683790E+0	1.024600E+6
3.016073E+3	7.717893E+0	2.688000E-2	6.683610E+0	1.024600E+6
3.017073E+3	7.718323E+0	2.692000E-2	6.683550E+0	1.024600E+6
3.018074E+3	7.719613E+0	2.701000E-2	6.683370E+0	1.024600E+6
3.019073E+3	7.726283E+0	2.676000E-2	6.682440E+0	1.024600E+6
3.020074E+3	7.724202E+0	2.697000E-2	6.682730E+0	1.024600E+6
3.021073E+3	7.723556E+0	2.685000E-2	6.682820E+0	1.024600E+6
3.022073E+3	7.737204E+0	2.689000E-2	6.680920E+0	1.024600E+6
3.023073E+3	7.755873E+0	2.687000E-2	6.678330E+0	1.024600E+6
3.024073E+3	7.784491E+0	2.681000E-2	6.674380E+0	1.024600E+6
3.025073E+3	7.827564E+0	2.689000E-2	6.668480E+0	1.024600E+6
3.026072E+3	7.878147E+0	2.681000E-2	6.661620E+0	1.024600E+6
3.027073E+3	7.934451E+0	2.709000E-2	6.654070E+0	1.024600E+6
3.028073E+3	7.975587E+0	2.706000E-2	6.648610E+0	1.024600E+6
3.029073E+3	8.010367E+0	2.680000E-2	6.644030E+0	1.024600E+6
3.030073E+3	8.037729E+0	2.707000E-2	6.640450E+0	1.024600E+6
3.031074E+3	8.063783E+0	2.701000E-2	6.637060E+0	1.024600E+6
3.032074E+3	8.086106E+0	2.699000E-2	6.634170E+0	1.024600E+6
3.033074E+3	8.097422E+0	2.691000E-2	6.632710E+0	1.024600E+6
3.034074E+3	8.106976E+0	2.702000E-2	6.631480E+0	1.024600E+6
3.035074E+3	8.119665E+0	2.667000E-2	6.629850E+0	1.024600E+6
3.036074E+3	8.129888E+0	2.681000E-2	6.628540E+0	1.024600E+6
3.037074E+3	8.138488E+0	2.701000E-2	6.627440E+0	1.024600E+6
3.038074E+3	8.143656E+0	2.701000E-2	6.626780E+0	1.024600E+6
3.039074E+3	8.149142E+0	2.684000E-2	6.626080E+0	1.024600E+6
3.040073E+3	8.151888E+0	2.692000E-2	6.625730E+0	1.024600E+6
3.041073E+3	8.159112E+0	2.700000E-2	6.624810E+0	1.024600E+6
3.042074E+3	8.161077E+0	2.699000E-2	6.624560E+0	1.024600E+6
3.043073E+3	8.156598E+0	2.688000E-2	6.625130E+0	1.024600E+6
3.044074E+3	8.147260E+0	2.680000E-2	6.626320E+0	1.024600E+6
3.045074E+3	8.111332E+0	2.696000E-2	6.630920E+0	1.024600E+6
3.046073E+3	8.080689E+0	2.692000E-2	6.634870E+0	1.024600E+6
3.047073E+3	8.033209E+0	2.704000E-2	6.641040E+0	1.024600E+6
3.048074E+3	7.994844E+0	2.679000E-2	6.646070E+0	1.024600E+6
3.049074E+3	7.962967E+0	2.690000E-2	6.650280E+0	1.024600E+6
3.050074E+3	7.938729E+0	2.678000E-2	6.653500E+0	1.024600E+6
3.051074E+3	7.912073E+0	2.691000E-2	6.657060E+0	1.024600E+6
3.052074E+3	7.889503E+0	2.670000E-2	6.660090E+0	1.024600E+6
3.053074E+3	7.865709E+0	2.683000E-2	6.663300E+0	1.024600E+6
3.054074E+3	7.843212E+0	2.701000E-2	6.666350E+0	1.024600E+6
3.055074E+3	7.818918E+0	2.655000E-2	6.669660E+0	1.024600E+6
3.056074E+3	7.798391E+0	2.685000E-2	6.672470E+0	1.024600E+6
3.057074E+3	7.760354E+0	2.691000E-2	6.677710E+0	1.024600E+6
3.058074E+3	7.759775E+0	2.692000E-2	6.677790E+0	1.024600E+6
3.059074E+3	7.753130E+0	2.691000E-2	6.678710E+0	1.024600E+6
3.060074E+3	7.717249E+0	2.695000E-2	6.683700E+0	1.024600E+6
3.061073E+3	7.707803E+0	2.675000E-2	6.685020E+0	1.024600E+6
3.062073E+3	7.694527E+0	2.687000E-2	6.686880E+0	1.024600E+6
3.063074E+3	7.687475E+0	2.680000E-2	6.687870E+0	1.024600E+6
3.064074E+3	7.673406E+0	2.679000E-2	6.689850E+0	1.024600E+6
3.065074E+3	7.668725E+0	2.673000E-2	6.690510E+0	1.024600E+6
3.066073E+3	7.662704E+0	2.667000E-2	6.691360E+0	1.024600E+6
3.067074E+3	7.656267E+0	2.653000E-2	6.692270E+0	1.024600E+6
3.068074E+3	7.641869E+0	2.659000E-2	6.694310E+0	1.024600E+6
3.069074E+3	7.631593E+0	2.667000E-2	6.695770E+0	1.024600E+6
3.070074E+3	7.599155E+0	2.654000E-2	6.700400E+0	1.024600E+6
3.071074E+3	7.559259E+0	2.616000E-2	6.706140E+0	1.024600E+6
3.072074E+3	7.536962E+0	2.566000E-2	6.709370E+0	1.024600E+6
3.073073E+3	7.507312E+0	2.474000E-2	6.713690E+0	1.024600E+6
3.074074E+3	7.479554E+0	2.398000E-2	6.717760E+0	1.024600E+6
3.075074E+3	7.461709E+0	2.330000E-2	6.720390E+0	1.024600E+6
3.076074E+3	7.444744E+0	2.258000E-2	6.722900E+0	1.024600E+6
3.077075E+3	7.427238E+0	2.222000E-2	6.725500E+0	1.024600E+6
3.078075E+3	7.421731E+0	2.170000E-2	6.726320E+0	1.024600E+6
3.079074E+3	7.410671E+0	2.132000E-2	6.727970E+0	1.024600E+6
3.080074E+3	7.393099E+0	2.051000E-2	6.730600E+0	1.024600E+6
3.081074E+3	7.370484E+0	2.002000E-2	6.734000E+0	1.024600E+6
3.082074E+3	7.355715E+0	1.940000E-2	6.736230E+0	1.024600E+6
3.083074E+3	7.342708E+0	1.924000E-2	6.738200E+0	1.024600E+6
3.084074E+3	7.331909E+0	1.896000E-2	6.739840E+0	1.024600E+6
3.085075E+3	7.326389E+0	1.871000E-2	6.740680E+0	1.024600E+6
3.086074E+3	7.319366E+0	1.858000E-2	6.741750E+0	1.024600E+6
3.087074E+3	7.310784E+0	1.857000E-2	6.743060E+0	1.024600E+6
3.088075E+3	7.311569E+0	1.864000E-2	6.742940E+0	1.024600E+6
3.089075E+3	7.280261E+0	1.838000E-2	6.747740E+0	1.024600E+6
3.090075E+3	7.295496E+0	1.809000E-2	6.745400E+0	1.024600E+6
3.091075E+3	7.284747E+0	1.785000E-2	6.747050E+0	1.024600E+6
3.092075E+3	7.254857E+0	1.763000E-2	6.751660E+0	1.024600E+6
3.093075E+3	7.211076E+0	1.709000E-2	6.758470E+0	1.024600E+6
3.094075E+3	7.140527E+0	1.711000E-2	6.769590E+0	1.024600E+6
3.095076E+3	7.054811E+0	1.731000E-2	6.783350E+0	1.024600E+6
3.096076E+3	6.987820E+0	1.723000E-2	6.794300E+0	1.024600E+6
3.097076E+3	6.920152E+0	1.721000E-2	6.805540E+0	1.024600E+6
3.098076E+3	6.883294E+0	1.712000E-2	6.811740E+0	1.024600E+6
3.099076E+3	6.859276E+0	1.713000E-2	6.815810E+0	1.024600E+6
3.100076E+3	6.831422E+0	1.708000E-2	6.820560E+0	1.024600E+6
3.101075E+3	6.811484E+0	1.727000E-2	6.823980E+0	1.024600E+6
3.102077E+3	6.783028E+0	1.708000E-2	6.828890E+0	1.024600E+6
3.103077E+3	6.729672E+0	1.703000E-2	6.838190E+0	1.024600E+6
3.104077E+3	6.665780E+0	1.714000E-2	6.849490E+0	1.024600E+6
3.105078E+3	6.612347E+0	1.728000E-2	6.859080E+0	1.024600E+6
3.106078E+3	6.576372E+0	1.710000E-2	6.865610E+0	1.024600E+6
3.107078E+3	6.551116E+0	1.733000E-2	6.870230E+0	1.024600E+6
3.108078E+3	6.528080E+0	1.699000E-2	6.874470E+0	1.024600E+6
3.109079E+3	6.513104E+0	1.715000E-2	6.877240E+0	1.024600E+6
3.110079E+3	6.505879E+0	1.712000E-2	6.878580E+0	1.024600E+6
3.111079E+3	6.495766E+0	1.700000E-2	6.880460E+0	1.024600E+6
3.112079E+3	6.467877E+0	1.692000E-2	6.885670E+0	1.024600E+6
3.113079E+3	6.424754E+0	1.716000E-2	6.893800E+0	1.024600E+6
3.114078E+3	6.387330E+0	1.715000E-2	6.900930E+0	1.024600E+6
3.115079E+3	6.341485E+0	1.704000E-2	6.909760E+0	1.024600E+6
3.116079E+3	6.289716E+0	1.712000E-2	6.919860E+0	1.024600E+6
3.117079E+3	6.247247E+0	1.708000E-2	6.928250E+0	1.024600E+6
3.118079E+3	6.220665E+0	1.724000E-2	6.933550E+0	1.024600E+6
3.119079E+3	6.196257E+0	1.714000E-2	6.938450E+0	1.024600E+6
3.120079E+3	6.169248E+0	1.714000E-2	6.943910E+0	1.024600E+6
3.121079E+3	6.151497E+0	1.732000E-2	6.947520E+0	1.024600E+6
3.122079E+3	6.134320E+0	1.707000E-2	6.951030E+0	1.024600E+6
3.123079E+3	6.122232E+0	1.723000E-2	6.953510E+0	1.024600E+6
3.124080E+3	6.114406E+0	1.715000E-2	6.955120E+0	1.024600E+6
3.125079E+3	6.111445E+0	1.730000E-2	6.955730E+0	1.024600E+6
3.126079E+3	6.108341E+0	1.708000E-2	6.956370E+0	1.024600E+6
3.127079E+3	6.110136E+0	1.710000E-2	6.956000E+0	1.024600E+6
3.128079E+3	6.104610E+0	1.744000E-2	6.957140E+0	1.024600E+6
3.129079E+3	6.099432E+0	1.721000E-2	6.958210E+0	1.024600E+6
3.130079E+3	6.049864E+0	1.727000E-2	6.968530E+0	1.024600E+6
3.131079E+3	5.977276E+0	1.708000E-2	6.983900E+0	1.024600E+6
3.132079E+3	5.926905E+0	1.739000E-2	6.994750E+0	1.024600E+6
3.133079E+3	5.892545E+0	1.720000E-2	7.002240E+0	1.024600E+6
3.134079E+3	5.866710E+0	1.720000E-2	7.007920E+0	1.024600E+6
3.135079E+3	5.835848E+0	1.725000E-2	7.014760E+0	1.024600E+6
3.136079E+3	5.799605E+0	1.720000E-2	7.022870E+0	1.024600E+6
3.137078E+3	5.738180E+0	1.734000E-2	7.036810E+0	1.024600E+6
3.138079E+3	5.666522E+0	1.722000E-2	7.053390E+0	1.024600E+6
3.139079E+3	5.588103E+0	1.723000E-2	7.071940E+0	1.024600E+6
3.140079E+3	5.516830E+0	1.709000E-2	7.089180E+0	1.024600E+6
3.141079E+3	5.452429E+0	1.713000E-2	7.105080E+0	1.024600E+6
3.142079E+3	5.421610E+0	1.737000E-2	7.112800E+0	1.024600E+6
3.143081E+3	5.400699E+0	1.738000E-2	7.118080E+0	1.024600E+6
3.144080E+3	5.391868E+0	1.725000E-2	7.120320E+0	1.024600E+6
3.145081E+3	5.388484E+0	1.709000E-2	7.121180E+0	1.024600E+6
3.146081E+3	5.379764E+0	1.726000E-2	7.123400E+0	1.024600E+6
3.147082E+3	5.380981E+0	1.722000E-2	7.123090E+0	1.024600E+6
3.148082E+3	5.379647E+0	1.736000E-2	7.123430E+0	1.024600E+6
3.149082E+3	5.374552E+0	1.726000E-2	7.124730E+0	1.024600E+6
3.150081E+3	5.386754E+0	1.722000E-2	7.121620E+0	1.024600E+6
3.151081E+3	5.380745E+0	1.710000E-2	7.123150E+0	1.024600E+6
3.152081E+3	5.381412E+0	1.708000E-2	7.122980E+0	1.024600E+6
3.153081E+3	5.378353E+0	1.719000E-2	7.123760E+0	1.024600E+6
3.154082E+3	5.387815E+0	1.727000E-2	7.121350E+0	1.024600E+6
3.155081E+3	5.383768E+0	1.726000E-2	7.122380E+0	1.024600E+6
3.156081E+3	5.388208E+0	1.721000E-2	7.121250E+0	1.024600E+6
3.157081E+3	5.396320E+0	1.717000E-2	7.119190E+0	1.024600E+6
3.158081E+3	5.377922E+0	1.722000E-2	7.123870E+0	1.024600E+6
3.159081E+3	5.395886E+0	1.721000E-2	7.119300E+0	1.024600E+6
3.160081E+3	5.384318E+0	1.714000E-2	7.122240E+0	1.024600E+6
3.161081E+3	5.375022E+0	1.704000E-2	7.124610E+0	1.024600E+6
3.162081E+3	5.385339E+0	1.727000E-2	7.121980E+0	1.024600E+6
3.163081E+3	5.354837E+0	1.731000E-2	7.129780E+0	1.024600E+6
3.164081E+3	5.265526E+0	1.723000E-2	7.153050E+0	1.024600E+6
3.165081E+3	5.208183E+0	1.740000E-2	7.168340E+0	1.024600E+6
3.166081E+3	5.183271E+0	1.731000E-2	7.175070E+0	1.024600E+6
3.167081E+3	5.165295E+0	1.734000E-2	7.179960E+0	1.024600E+6
3.168081E+3	5.157460E+0	1.725000E-2	7.182100E+0	1.024600E+6
3.169081E+3	5.150083E+0	1.730000E-2	7.184120E+0	1.024600E+6
3.170081E+3	5.147859E+0	1.719000E-2	7.184730E+0	1.024600E+6
3.171081E+3	5.147567E+0	1.705000E-2	7.184810E+0	1.024600E+6
